time,EEG1,EEG2,EEG3,EEG4,EEG5,EEG6,EEG7,EEG8,EEG9,EEG10,EEG11,EEG12,EEG13,EEG14,EEG15,EEG16
0.0,11.838809927297898,28.18215175186078,49.96218916973149,79.98029939537108,102.40996594050821,124.32065244652986,336.9141774472106,353.01836632662264,475.9552095482726,492.63203221586855,415.12515512788343,495.06772686632786,644.7083353921943,631.313140422672,580.1494067498132,468.58685321908393
0.004,13.398787731328074,33.517321468630826,60.839667046522806,88.22397725867567,112.60158186796944,168.2248431310766,314.8994167141972,296.76632226402734,316.3349309581289,281.81090875602274,178.36508624840354,71.5526272864036,-35.10960147203721,10.628627675623477,-120.03247724710326,-214.9203450304264
0.008,15.240942966680818,39.92351649196148,74.39751906930343,103.4984823219607,116.48618813035125,112.2910578234274,95.9965343867448,50.48688507183001,18.529756215030446,-13.560940783021607,17.43248095938047,27.219701043388653,70.86374591821553,70.33529294150814,159.2572653201387,181.7205432538647
0.012,16.577217513913276,42.74314916557899,75.64255907195576,88.57891368846751,77.96562328331174,51.376949055560736,0.5181523566192112,-37.20685144119817,-25.375865288861874,6.551870884372178,74.53987937199615,141.99497050667583,225.88401426391331,222.83672818653332,254.23006770719036,333.3861170636939
0.016,18.44170326669889,49.759067143058274,73.62172865039157,68.13730968046441,33.326917058298164,-18.068372069938576,4.464239335415627,-35.71199439657943,67.29555629613185,157.13715975715718,315.8310496027757,225.63954226408174,252.49981896355675,137.59467582412282,-27.01538591971925,-169.61713357575564
0.02,19.789702381310903,45.53739868209141,56.18814401107534,38.85914641493965,4.674070796901624,-18.986486051833722,-6.768981301253106,92.62967065478205,225.57374936657862,204.95482493377614,220.82165786090326,98.57253876833795,-31.86839048552355,7.30872158280124,31.179832608013513,226.1691983441532
0.024,20.691974132137332,46.95212300228931,46.54693383885463,13.853831130797968,-12.051769766727773,0.9395880170488056,88.55106219239117,144.93698828941695,241.42215228923146,132.4964702358499,-2.961155304706608,-13.362715456408608,-5.2172721615654325,223.24933272027073,366.8637794647269,340.07600010623287
0.028,22.30690413777846,46.12138299177816,31.166255356715563,-4.515963823107526,-11.674458834209311,59.871180408154075,185.86934162644434,193.37010577533812,86.7440507742325,-18.12481020465745,-17.6536550601933,125.00021922647579,368.091976142847,374.43407277454173,145.4373085831488,-20.87683036634155
0.032,22.259034344012463,42.75644372544323,13.928863449361423,-13.788219704643893,26.40778293222747,115.00862535159266,171.63707741548907,81.96985907154233,19.939131875307623,-34.76082063942408,139.47416461582472,366.77629550129416,162.18327854371122,70.6999657751633,66.30645706864753,158.59216142075448
0.036,23.968290399363266,36.13022861423477,3.510983279314548,-12.400903780813572,63.117421558604086,161.51960198354834,111.56444546464488,-21.860448489574708,-35.565662822845084,157.3903993882206,302.08471640267055,137.56625423879464,-108.92613924882144,65.10583561932957,229.91074896464602,402.81107003295176
0.04,24.104384095738347,28.950820580903965,-10.903968431286827,8.510570261056422,102.21650853735154,130.09312681733257,12.874666621523687,-36.740455137379044,115.50512784699858,276.83959388757415,110.30680044438637,-90.34455927979829,94.97328884762707,254.2606788651496,323.63017584509805,81.75996823865837
0.044,24.281769344953567,22.092188654822902,-14.813426119011801,33.2849668569852,116.55064877713357,70.58051346619307,-59.02806582028259,63.58598308205055,246.07125701528744,129.39737200049456,-11.009233961098332,90.98446940722006,408.59699846644565,159.77186803547826,-44.714769748584445,119.83603257574404
0.048,24.429909429718002,14.579525832412422,-6.3484508404702495,58.57471009984312,126.74886429303908,17.65056125278592,-7.300254488696638,144.00147327172212,161.72502223143687,-52.40283605490248,63.14905111693534,297.83309100102696,140.35504973930415,-92.2083449760139,162.39361079626025,551.0978894115894
0.052,24.55260050639488,9.345797827654547,-2.238884600310925,80.96597415578623,85.18263565877385,-6.9696269447727985,75.74090044380723,170.321706125949,5.9033391214627216,-40.026500443925414,255.5847501380343,199.148276709235,-112.8974554271957,152.12802157392943,304.8275172577606,49.669883864150194
0.056,23.216184961520916,3.3309494754920443,11.649791872222462,84.85667812093783,37.15903683481699,-1.1249045923534524,152.06826579540885,121.14766517151017,-20.450946888207554,190.79320987700095,262.2372774649198,39.02228635634374,124.67301449515558,334.2436232326663,15.433792691438214,25.10756377172902
0.06,23.320575665746624,-4.793181169521304,23.815688525816004,88.9520251328592,-4.8197584250415915,34.17290335627028,143.45165111733843,27.88204866241064,54.716321566454,291.5808783092542,24.807356021572048,73.53776534278794,357.0409755563283,66.48210846000794,55.24915652247108,559.6101557110846
0.064,22.375130329613356,-8.41543900832276,38.222989394125136,83.30709087069616,-30.129990911785015,106.90101769336877,120.5028320309969,-42.76421185769429,194.51382178796192,122.2086468332605,-84.71881439683301,235.34292358001932,114.88999545918028,-85.58104728743933,749.8937933654146,122.15703935324464
0.068,20.686417361039283,-8.133817546506577,57.62615390556746,52.93794439466345,-24.612404831111817,128.14999118227735,38.49735549049807,52.64037110982075,178.80194085004442,-37.356863038133184,145.9555155985635,257.7981200981044,-91.65929815151705,580.2366308024971,237.6353725500878,-19.683840348511126
0.072,20.08503699300048,-5.589332088678773,65.17108529887237,21.769104751027015,14.327186464380638,133.54964090076555,-13.305321625139129,119.56871689984548,107.55116384809797,21.973214073721252,346.539689503161,-20.56901089472308,368.41099721638034,424.19811213509814,79.61169296217406,467.83927832231865
0.076,18.569809556622065,-6.343504893583461,66.76365794015626,7.969058471757613,65.8429643606078,84.24549540184138,-14.896964713903742,149.09822028257412,-46.383245875972534,180.01210043155916,125.18162200544121,36.802535849568045,704.7261362696165,-12.082005666819583,389.07718705388595,114.01763739450797
0.08,16.56683419372184,-2.4184266726308152,75.92783137330598,-20.402044209075306,105.84114335832584,24.636926943926383,60.80344791273409,146.20150347339822,-35.5884173815098,290.43034374647357,-59.746597895598285,491.393039857154,150.7652367355903,132.40243605326083,332.4358466121331,-33.38537088199331
0.084,15.067814103328562,0.788846744355876,69.88265104565383,-20.994647183684798,122.77321407002759,-34.67779164505755,130.35893287317464,28.325343319487516,100.38010228021523,124.41979521248724,66.08939813533087,510.41092166997385,-138.30300114841208,204.4309142342299,-175.1913541495997,254.17075501667796
0.088,13.539237437559613,8.281164991128579,56.934004202303285,1.5088391893377775,108.79193753713963,-17.804513969440833,180.2540888640978,-18.81543540597424,250.64842498966937,-46.95462522513381,391.9982988155326,-25.13321756761664,262.8637986314447,67.11896634061365,155.66908300668467,168.5575646139966
0.092,11.809514940218783,14.149506354718831,42.47208369855095,22.96704745621277,76.72642906845023,23.83164872731264,129.16198660802678,28.420817477728576,182.3538597866364,26.157519272606564,418.8439371487028,-63.21063233107367,294.2631814675004,-44.891789213756965,328.58653328569596,-102.05764813900407
0.096,9.999999999999982,21.479438074844115,25.47802989092781,48.853914653096524,33.358543967605286,81.17452659767761,38.736281826244586,107.04228414145771,28.28823443454047,363.38849560249923,33.856669574975626,176.6482505647129,67.63558346249881,261.197983824262,-8.0746213218261,202.94961122169008
0.1,8.291656143763706,29.013324435071542,12.154840550765723,71.80939462307528,-10.921633179388095,148.58726461519134,-51.15621927766932,166.0298130200176,-50.69240171800925,483.85853342280365,-33.08775387909046,216.0406631428521,-86.57986055523136,231.79794508775214,25.939422896770893,243.4408063252161
0.104,6.329369725252187,35.38757273413302,-0.8864616407101948,97.97483510075583,-7.62320681043839,148.32474136792194,-8.858507870198878,157.26019519090266,77.64880313914074,235.51458797727489,129.83714058977523,70.54243069305922,305.86903065827755,-40.82033275112565,228.7061587219486,-96.89355356077812
0.108,4.8612828194050905,39.53555006160459,-5.7839780276706065,99.64474642209873,-11.701168466239025,110.81208865120742,53.71474095161545,58.55069630950431,316.79078340788516,-15.442294876256923,192.94442881939986,16.37509198282548,331.9171038714068,53.41286173087984,145.37882063140353,213.65739239695498
0.112,3.468270066023458,44.26198736063995,-7.406366601435131,81.31171447842817,23.758251442495663,49.9506405251786,116.64024199203135,-24.167354643757704,395.47830166700066,8.562479599600223,135.331191338852,184.42429467034782,-64.95370693924849,404.1880257863705,-144.14930079567773,250.28736203522809
0.116,2.013780739901194,46.258846158771874,-3.4025417267031273,69.38631448076762,61.881874926638716,-19.0981250071507,151.54227917302984,-13.054582326764617,113.99699028959229,186.71292033336897,-31.76418991314796,334.09919114257485,-17.80183918843241,138.5311667627126,381.0360200822736,-257.6468865690283
0.12,0.45567637858471244,49.44260545879372,-3.018611553880312,38.86253073928878,101.30340850164441,-38.3499463130988,112.7044804149125,186.95803852907784,-25.122475722920754,189.09783418777766,27.291319962715335,88.5306761405441,205.15825290390654,-123.81517940706175,213.30158248615473,370.6568251406709
0.124,-0.6810515096702581,49.20000480614295,12.166600911471392,14.072791527687947,127.56797676276962,12.000727152049222,48.51551883972763,353.9320421780869,-39.68127619302476,113.90266461875076,187.78889896682455,-30.838403393648377,234.85019851090257,224.78949126999277,-233.83078156938262,639.8734714444976
0.128,-1.836208716654756,42.99037522144821,28.82107493001466,-11.468238408698411,99.87980790632402,59.90967010134771,-26.70843243326405,346.2277550678948,92.60864762288092,-10.779032236846163,266.03747425683855,130.03347271231922,-62.8345711818518,383.5814620593544,343.4632338812403,-72.05464300530804
0.132,-2.8222379662570383,40.95881750058818,46.442796587360256,-6.7844833642706135,85.16406810666045,124.0643592209325,-22.713113033986275,83.1315340669404,155.35312125931304,-6.550820151043396,40.89104942253849,302.63159898161655,101.22538345678417,44.47855921800908,591.8669433497276,158.96440504703264
0.136,-3.6006671765028297,35.47318581995543,61.0527603694694,-4.1340695199783895,38.90887001800114,143.02438731382352,72.71957303450438,-38.57575755871605,153.20997900913815,141.03651802068788,9.192795257497878,140.214957204172,306.9117366419772,-10.524819145583024,28.180301115403026,287.7711280477514
0.14,-4.559956510285838,29.352925663901075,66.13857715197938,13.076629129159492,-5.246618289940017,119.37590510825146,258.3160925626221,-59.51104365222861,54.01396091101698,289.19488565320773,109.59218397835774,-104.80491503533167,211.30801064097903,573.6952772464192,59.36940830204138,-40.520644980076014
0.144,-3.5317606465995777,21.953927476383917,77.82890404874777,35.28083301506804,-30.249701205962523,71.0234448885832,314.37913005838493,65.36886018261598,-69.65816333898815,129.0944146123218,193.80547683266406,91.96472719564063,-135.96659075291387,196.7206531377866,256.20586633659934,91.77717254872964
0.148,-3.6034594322131888,15.445673247703184,67.28478558470229,62.25393132289508,-16.255688486442935,18.877096349615677,125.17827812172061,157.2805128753626,28.995722699019815,34.22432762888167,159.62950903158264,196.65759528112102,225.52563867118306,-104.75316059479172,133.58996157396808,351.43464279490536
0.152,-4.277628970684864,8.798491282920608,63.50909930842562,92.17237338884988,15.144871687762667,-39.06747779144075,66.7276538609316,164.17973917120088,155.50303209910018,28.565801964223837,-28.643715002809813,160.78384653683727,664.5057970067684,170.9430874491844,-56.35120696095265,-67.58682219998437
0.156,-3.411035031947872,1.2492407595635946,53.03694497033482,100.38106075042496,63.00100582640754,-28.84318159317661,-11.055757699739388,113.71488051665807,192.70510968724219,181.24866227141285,-7.875568074763294,0.9996225352894044,258.6467488251483,380.02368194743667,329.71853189407125,62.79857640439053
0.16,-2.892435596889534,-4.857141253731385,35.63563543360604,85.58606454704946,109.16040792492939,42.883704008454245,-44.4694581862267,-16.81428778763552,139.64112350527833,247.0598317665413,190.42613340782745,120.34276184099318,-145.05914517727786,46.47649562535878,319.7639411367596,497.9718319867788
0.164,-1.7701439705583546,-8.47365743773894,20.295940961376274,78.03702594046072,119.74686623967446,89.62621008405173,19.702087174954592,-26.405344716252216,8.551831268828138,130.82040627097481,206.4049423194793,548.074370440088,156.0616525940277,48.01501526580411,-37.88230671850323,128.98265454873945
0.168,-1.059026583175541,-10.288091289455934,3.5503393790086513,51.856150785759304,111.87391204421255,117.19572023573753,101.9304446145924,25.70662551525939,15.785903765329621,-63.366745913410824,62.486458544473464,251.89087718094765,397.28496928817793,399.9255477881721,162.42921883436372,93.17286091909173
0.172,-0.05280858628520413,-9.442510081161004,-1.2811136791016438,27.420792781777173,81.66718225361625,134.62257014838457,134.73251149791417,166.42677297981487,76.78580948737904,-52.39769452549237,-121.93505049302021,10.254057312625534,80.16918532766724,285.7705577018801,370.52679233203816,532.7364520948441
0.176,2.0482337858244204,-5.044269750638531,-7.0470582495282486,2.171251310977631,34.68707301988468,98.6377821643196,153.49146339919008,151.77517205685302,193.14668445459094,159.83776788977798,186.19838337011373,31.29525454053764,-129.9061628706035,-86.85936192609637,-86.33363269377577,306.734923857087
0.18,2.858394878945404,-1.2591309687712133,-7.5751624198369285,-20.03109928046853,-3.5970352113312103,36.54819242918478,77.07227583180278,149.83412441353897,170.2746775050603,209.63162722887364,464.0722437072576,244.38552599869422,215.71343392330581,121.89787135453629,-31.759751785179873,-111.72793160707386
0.184,4.543593600295797,0.774344966470391,-4.757737365262628,-10.27971183040016,-25.473787812222255,-37.994794210096785,-4.4995901147182735,40.19745416549314,65.46002852231487,129.48042021497753,217.71073400866118,174.19432453002185,317.1399808177389,409.7968003403566,372.675083374436,835.1965232874663
0.188,6.312771149209571,8.598386472076527,2.868583317572476,-9.00594380187264,-14.72993501876337,-8.847656481371757,-35.97975318878299,-58.85085754576107,-1.3421581711143205,-11.54518338543025,-26.717507329013017,-6.6914470640782895,82.26997153313876,107.99478156169752,288.9526917984631,210.50565995831428
0.192,8.295248645658985,14.877227355492064,18.01015556133796,17.200627458023618,16.175980799910896,7.47257953124948,12.582679572533387,18.734062449841268,-13.365889433825572,9.727166531689448,-74.94915712382749,-74.44056504919513,28.549377427585256,-63.314724879546986,-222.72058838904468,-194.31781443609123
0.196,10.000000000000071,21.400427400091694,34.38648057789829,47.27722696026995,63.5262861273392,77.08973088285731,97.04255485797714,131.43555711568473,148.16110983040485,344.5160105703509,197.44193161303858,178.27842524432262,246.8107609270009,312.6967691420001,622.4582498640889,379.54354418105464
0.2,11.696869887064903,28.956901355248764,49.38933361501023,77.78980819947924,109.95730884258583,136.90197393347282,172.09067176719458,228.7828904698266,175.64978204473903,573.5810987572478,255.4720766360882,303.7055808531494,281.6521627452331,541.4121014587374,321.7887801654549,213.11274056116545
0.204,13.490925305198964,34.46040088753693,61.70753860187402,85.732194110563,105.11356279655689,139.33042407015768,139.10313394611262,172.1688893341347,144.10359020669512,275.87793651620166,91.91562715164841,66.90752222658128,-5.5534648041766275,19.1944979923054,-34.890840826734006,-13.576567509799759
0.208,14.959983347477236,39.67005728741782,66.2776299155579,99.4962478366956,105.73367809649,106.2301197454381,94.6216429700697,50.74593933824427,46.24570165537533,-69.24781224031852,-106.82327848315958,-89.7159496956937,-30.293147903355674,153.12992301971076,156.45105900246108,251.817153158905
0.212,16.87495755838101,45.6123618328044,70.55923727940274,77.9702090960015,84.51934531096799,52.49861613478495,22.37435659632274,-0.8435924869961298,-88.2475577571397,-39.2772032989393,63.69922434001308,163.41380009592817,293.41659702013504,317.4208948129302,395.8452039645398,343.16891022300496
0.216,18.638007171250397,47.89923974832806,69.0883670920118,65.1562141781086,37.47914997332432,-15.164956665572163,-28.706073853034795,-43.31679242775941,123.87205330371908,137.12186761092556,291.18122884311424,268.36432003900177,245.33534917609563,135.37113813573285,-6.12021217152062,60.62459912545903
0.22,19.548429791011916,50.175554693254995,56.71635044308216,38.78190228810271,-9.279353014874019,-7.475153570037818,27.19993380235151,95.03640994568882,411.789597416515,264.6827077788325,155.78882094712523,99.04645546362826,-55.070211680242096,-8.721711761131928,-23.430635006895017,178.48006983279825
0.224,21.38237333994958,44.99913263101462,45.13020350004253,5.886320245919833,-26.545626162129437,1.4288388628320874,85.67554840952042,148.23045917252082,167.27856988292865,136.10079668897117,0.0962194352278658,-123.31814516516417,38.42844337374018,233.65039108360872,242.30731881174904,341.2074161628134
0.228,21.750078300400375,43.40522436128769,30.93840706834164,1.197136917309578,-7.6417349460462916,59.8947876014303,172.98565070743422,149.0354922221234,87.87821338914517,-1.9257132869752098,-38.81769934743903,132.57096326361136,524.5435190778835,227.93331940905097,140.6401861094467,-19.980411442196242
0.232,23.23816545355114,41.61458657797898,17.332664685928705,-14.914625567610955,15.775773039352302,134.6507147671421,161.51635894509235,83.28816450969339,-72.39038148089304,12.93832297124493,138.26132735578702,383.67018430071823,443.8631420468863,-60.391844863987615,-66.75214279538034,159.56744788954182
0.236,24.02830086595928,36.15370035974492,1.565541095427875,-18.38851545739668,62.04546560622855,165.17101554989227,96.47242932786959,-24.94003680828152,-26.570163901105687,180.08550272322753,216.23218509929717,293.29685013090096,-61.23382268892715,76.31613115204185,230.88442772258037,697.5186203369703
0.24,23.693134265403366,28.886445605325044,-11.635428533577112,9.15913823109485,90.37599591588278,125.70771997961643,20.795019140838463,-62.3766039057937,134.39414585200885,232.44516344257832,110.3874157875184,-110.14535037862959,100.60762223847794,235.87478850169495,208.22451419830793,64.68484927536466
0.244,24.333615985405167,22.132421422928438,-8.950794805883838,34.642402254455696,136.69993186598225,70.52555613651819,-44.84106657447926,120.50511037929664,209.65513912533237,130.24014913287695,-34.04066171517974,160.95771337086668,327.7471500449871,204.62465726669433,-178.68329633281144,232.52508623908312
0.248,23.931025567761097,14.723818103418877,-11.434038214248844,57.998401683140685,125.81591512524278,1.001994969374941,-7.7600823722703325,385.6976796504292,161.31529457791208,-64.83703164721564,43.38900449545554,330.4561446207527,167.22912027067207,-35.61031894456727,155.61059336000642,314.992865347337
0.252,23.92958746618521,9.373268087565101,-6.757125367049895,90.23730422762388,77.78408254536708,0.5256912492260923,74.267335752407,363.7564717179945,5.319281474239617,47.48005593894608,305.13703444351415,178.30879853459254,-59.370808332453294,183.23715257847073,725.8643600626567,88.58780558491176
0.256,23.24153090609863,3.7757701642755706,6.729267809922508,85.17451286928483,36.65648139090484,8.473296354722933,161.65603369270417,121.35990676444412,-2.8628711307023735,191.54237388274734,208.99723948563306,17.95076190618478,122.34552993812206,408.36920783233234,-33.22676186324969,-19.834503905984036
0.26,23.37314542730479,-0.7645815153382465,23.345047751059706,83.17201264979019,7.37303247864368,43.194478565680996,160.56050022206705,-22.8041398650781,43.991573615223594,186.30944101275358,64.72571220901884,87.36363807141873,318.18516155619704,108.76180509466587,1.2925774633567926,215.4533976895383
0.264,21.827559018307024,-7.9081521146081215,39.605701075913984,83.95742675753246,-32.9617412008389,110.98593709696354,100.5305168347912,-54.34939022390441,202.36750807603556,116.59395368885072,-47.13199707581211,332.88224721866385,105.14818827480048,-25.295533780011084,393.5023965763774,73.53831350166136
0.268,20.386370671450216,-8.81259804912234,54.28486175362532,50.51465893864648,-21.793515409364716,134.9013993353551,36.97276262424708,34.4328377881013,208.86783613114096,-76.62061507719804,314.1224233046645,168.74413948063855,-38.17466197124293,717.6013236653066,145.28140169235292,-102.38529630925638
0.272,19.628546501730206,-7.460354646400301,64.57327245710633,24.36665522175697,25.660546982064282,118.77871329907995,-47.132863905897054,161.89147324802866,105.43549177256712,-52.06844338777577,224.0318767191327,-33.104580343689435,146.88808052876982,439.812242936448,97.0937313775919,314.20313218216256
0.276,18.05985021141016,-5.640289068844769,71.06973899918741,-5.448942900822097,67.01699448182336,97.18470107080319,-35.48539961682742,176.6041007953026,-13.643563630753064,168.8799141708484,134.0665384162491,-10.312306010090396,353.81676593501055,-208.29068821212002,317.7822114001558,125.8813147492344
0.28,16.495183995932052,-3.1837413552144334,69.47406604692634,-22.694731308737346,103.59442203348553,22.327846086842108,131.33584765536136,132.9297268165202,-63.21074491582084,278.4664581743427,-43.274876604203854,193.21337632724249,90.48656270790718,110.60047112133029,289.93819704085547,-18.151017334175435
0.284,15.406093394348751,1.761581232811551,65.3262848160468,-15.053543190890508,106.68977245313306,4.909627874547304,285.2172551864875,36.39367918697537,110.55168661395096,128.52966917519254,30.91940129338117,296.33517007419,64.72576443305141,444.12529139382957,-30.445311684025654,306.86763334802197
0.288,13.524742640231404,7.05450120256492,52.96317641197228,-0.06354292712914855,123.96479727502496,-2.390661515196861,142.30677590791652,-10.398026331073766,218.63846327712795,15.064204173447763,262.56284459526063,20.552559792668134,239.66161186688902,116.98118394186776,171.96220525581208,174.278977414395
0.292,11.702778665378204,14.873856078310077,41.486669542138536,22.057693163876728,73.99993905073873,12.284262298940767,133.32317018362278,11.030200365304069,210.5607018619777,6.1885560776876645,206.98529932544471,-15.479093988387746,253.57652084115347,10.480084222344487,371.1504178812854,-146.49236955666862
0.296,9.99999999999991,21.46126826902592,25.331899849490593,47.124026288202984,36.11474769846063,85.87309593596956,39.323317135179245,134.16973054334147,21.870312147722032,316.76718541781594,67.02694677621001,224.77924851185202,59.34707141284471,230.846772059429,0.2877957465449299,679.7112359380299
0.3,8.233017182308025,28.436611633898302,12.886686011515305,70.59763999214883,-8.553053979461609,113.73334096616476,-5.614157427922237,225.74223227935684,-10.825403773169057,579.6214208242479,-76.62858513024784,206.91824509329751,-101.11415305636243,290.9704420319314,80.52506891608938,541.9061364269882
0.304,6.354606598358497,34.0778797293823,-0.31083308988440805,97.74163670399417,-17.866351770757348,140.65209312391553,-29.115180273118014,132.31476789206164,52.48775377521061,269.3921685225187,133.04723296370236,11.789055788844323,415.5146616297807,-28.954712041697718,496.26713070737947,-18.540939218271546
0.308,4.711790121353662,39.78686422862076,-13.217560456701285,91.5067062588501,-15.108636023035444,118.55342277755437,50.483494919129605,55.22642429698838,158.04010868751334,-41.451549577375545,282.3934026355397,-35.85510938873006,608.4950891405551,114.09623990980373,144.69866003558946,326.19578564748315
0.312,3.443015463636054,43.771662071312875,-14.789205663711513,85.60183142486335,16.072001273865553,49.18438205213414,123.27709574715288,13.191733082180846,266.9883751160589,23.63080005702203,134.91215155665466,164.69313837831305,18.06718312948655,315.78636560076194,-189.39117859084575,373.2706418358247
0.316,1.6458272400449143,48.87032372569864,-8.295473572327026,65.19130591668036,63.3281295182728,-9.864280044067044,201.66687412871127,-36.06492985553656,115.27348457998441,157.841502821762,43.54811326107142,568.0713445142036,-50.60391458892792,138.64652230008156,592.5082673553109,-212.0137075198832
0.32,-0.0777180962720525,47.55434325172695,2.2772927290563025,38.46103906235519,100.08014973393398,-17.64289935972937,143.51768125064115,86.82720439009778,-45.974646696625854,278.67385902838555,55.29937073502981,190.98153434413086,241.52015365070997,-74.75878431374758,578.6307471677369,187.83254657849986
0.324,-1.0622925980346345,44.84977809996168,14.744073843081129,16.4897671591185,127.72176568961655,-14.074684254235919,49.58302754227155,161.2042811093541,0.40451901101229737,129.73546589160662,273.75094706308926,-40.49776603307424,239.14323494990578,222.25507950378181,-253.0300249524592,404.1928916251178
0.328,-2.127401162463128,45.53233073854422,29.04824155724991,-13.201797023527867,103.28823120292058,59.856121206852116,-9.463110258972293,174.11678431082169,169.76519738575263,33.283135762283806,309.8371201964088,130.14502487482193,-14.833694376744063,303.34952933074464,155.12718198596593,27.734855281840595
0.332,-3.1110120036614095,38.91318878321161,44.15520620265718,-7.579168987000962,78.70782088023049,106.05748355970334,1.1877680947860085,83.88109686785661,237.58001014493817,-9.603134338530197,81.20076994937986,212.0592891581989,34.03989438305112,5.217914155442003,454.15488925707643,158.47948483515955
0.336,-3.163666795299859,36.52121112611691,55.79116930408345,-7.489562366523238,33.09163353844183,165.78634224961016,38.76741344940585,-13.79853775588002,191.17997014099444,171.5238868878092,-66.01278373130253,130.90884521233903,390.2994664150932,99.24133427756314,-3.4229413247586535,278.83761901616845
0.34,-4.048515692094064,28.493225259437814,65.9134734144902,2.977816141801867,6.250525821452079,116.48413994496809,105.70491606483105,-20.439869592236477,47.88652198404919,173.74826584896277,109.7664128013377,-6.945760668336703,210.65097568820389,704.6003042919695,91.2315324123872,9.965610321898197
0.344,-4.714552724010973,21.95464118044401,72.60775238299266,33.72864300008097,-12.804752411823976,69.90106958668426,160.93273599794787,69.29418914090415,-79.65596279492394,128.68509302145483,213.8304532133723,90.33519540214544,-71.99307296772716,407.0950626457879,403.864336005213,141.04733944846296
0.348,-4.052499878670867,15.093755392789703,73.20320989169036,66.40346180441617,-17.41304554391995,6.781069108715414,146.70437890009714,149.26401537260654,29.06000588030868,-42.500749242171054,388.95719410428205,255.94718886879772,85.170442576549,58.36332128293188,127.63865942315334,490.9427237728058
0.352,-4.29550730839464,7.585852809327649,63.589099523456774,88.30953875976897,26.46063159618425,-3.891752658227972,64.1775105429442,180.28071238992584,175.07897171713483,4.518052579221262,-77.69282903128286,206.01412671821606,325.57626498656043,166.96691243591033,-193.25948480955395,106.24422229967679
0.356,-3.8323338631944424,0.7528738752147746,50.72558213396603,91.89128531793921,67.31026446920939,6.047833660491783,3.1636837159974363,110.43500161221229,272.61367960201596,160.61924134404268,49.41058320565003,-125.28863595168536,138.08858491886866,438.51623927547416,344.9814663466752,57.593606326393285
0.36,-2.4242794588766845,-4.590850658941619,35.509908677532714,94.6692905140353,106.70292211634195,36.61492581534857,-30.66642301484795,-10.02452363913497,150.6265182968725,256.96085458564454,192.79383444015883,44.39136565258549,0.36044009952175315,-11.247769174021727,209.6304376597795,623.821437514637
0.364,-2.4978662182022173,-8.262181297314452,20.289951395718155,74.05273619476284,113.57336779428013,90.77376695030483,31.849598755098427,-75.1199918365553,14.874629240953908,115.85579701190007,270.10725630553975,317.4645575990636,141.46558706090136,-61.2571175851954,27.56134134899463,174.33441241887448
0.368,-0.9002566642109731,-10.633291652953694,5.224196288923729,50.324277940687054,124.49015758210912,128.05140397317365,107.15662804141975,84.23715661370274,-2.407879731099527,-35.19754759093735,68.15515006030199,199.96483156365753,295.343743687542,314.31186120119804,157.4888372196579,-39.66866481021836
0.372,0.5848875812009346,-10.102109374617502,-6.728295577122886,23.352485365441204,86.2362435353457,142.1062163961567,155.95529595875325,252.91973109006994,75.75880156267348,-17.317809534129367,-121.71834197632279,-61.79918207254639,78.44916855521943,178.93864084796087,383.436661115857,519.9834217648092
0.376,1.5985291757761022,-5.949267959074408,-14.90661758412066,7.666676188686402,38.787492265574336,96.24842992662445,141.0637318673403,431.8924739283977,197.78300709734464,170.63983012623015,96.48178305304882,74.55125841456518,-192.57620885930388,-87.31502187199425,11.782320037000659,112.80711517155828
0.38,3.4898839324046955,-5.096435034257905,-9.34483496313559,-18.949626760443877,-6.8354948148650365,30.006765923992504,76.01215024987452,147.17384733340634,195.81328106397908,224.2846207366298,184.8454498217469,202.1436122368721,393.6795983235371,116.43379801571899,43.80141919462875,-146.50914306281408
0.384,4.669739248419068,3.0629598550547392,-4.785613098389852,-20.30943347721314,-8.414471704522946,-9.352079188610134,22.55546231280423,17.499701163907716,64.68507948840816,117.54618673506351,201.56692674758236,236.90395023243082,666.8489241428678,435.8478820268154,820.7240930025108,392.1592257336891
0.388,6.385007685024523,7.430989926913394,2.268560565178749,-7.650832121504557,-5.831346008518651,-20.455924191291672,-53.85564037853261,-26.81460158142005,-68.74150798804521,-43.73419009896057,29.7675944816789,75.08692609099502,61.05431270435136,66.14987137976786,287.40270295064056,198.7178684190244
0.392,8.29008841936777,13.849967652804235,18.55932293989852,20.02954802375835,25.234221764167973,7.724704206696714,-1.207001950006216,-7.09739619870885,-12.099634475261482,7.168247415767468,1.2028844001368242,-45.97733807971923,-124.93939147424516,-72.45820830957325,-60.21441354271656,-122.35238180010344
0.396,10.000000000000151,21.276833921927494,33.88130385671143,47.0611844142527,65.4458884977949,75.33514932731768,99.77747805694788,117.85067863603896,127.77440798588523,314.1415269493101,222.77760423258246,358.79212390012583,277.3619595394602,295.5440994020914,231.66471465156008,300.5239047988113
0.4,11.697907341243626,28.390183519180987,51.44142036587208,68.4041478474817,108.65998115734781,110.8050345283348,167.3986503652298,175.33264030642957,246.31484043604047,474.9761786236934,272.12297918799504,545.1598909870385,222.2876778299585,185.07309064000603,237.72417042680908,236.57939218161428
0.404,13.677485655439316,34.40981017077764,60.74678333033184,94.93129841827218,121.63806039808044,122.47116978869664,179.82498012935912,140.15133830593186,155.03233072274006,237.42446116694904,92.37341139744335,122.55784694951934,-64.39044888062793,-99.61690375661203,-93.4921194926284,-92.19848109598442
0.408,15.165190209694675,40.94254511182429,73.16945290773317,91.26000941117293,105.70600779070327,106.72858619818092,85.42125509988036,54.359946163258115,3.8673529086426868,-75.9140435826431,-81.81727637436754,-9.975803271670856,60.46917776038748,193.09393288242737,160.57392176075678,342.1640903824685
0.412,16.535520224135233,43.01788261173665,75.81715084636244,91.39241432184116,77.27242496625803,48.70945297637661,-9.926935385388362,8.820830547779778,-81.97854010098399,-22.789582671155358,51.439241387698424,169.7332684130183,260.78534616151114,572.4381061036129,242.25443774581615,352.7666006552335
0.416,18.266274895627276,49.82397965079984,68.68264633049824,65.23011877397704,34.602145687252275,-4.6548276444277406,-34.641597485380856,17.624223316483672,72.03491607853942,165.48470687711279,223.87973170622558,331.3365364196605,193.74798778462156,133.57363710712121,16.123956046043503,-11.995943294333301
0.42,19.70313801830475,47.00633026502618,64.1516482160083,38.89153230983936,-2.486376911717059,-12.622087348879589,24.691359354682504,92.20502961398655,210.86918011226783,235.4905686708149,228.6722751408388,88.24473121618412,-98.28581423442054,-2.2447613056335456,42.82884106078022,456.9169511450423
0.424,21.01369867956904,47.376560864465496,46.99325475164878,13.312084333589091,-24.731351387003286,-2.773867754670931,191.66015075194193,210.04481917867673,231.7927659274019,127.26096220491372,53.82068392115592,-112.50921943734593,49.05138870866642,264.13962896516347,485.1634592956437,588.1229289496437
0.428,21.621263122341354,44.0749574894613,31.046593721848122,-6.6952851530300705,-6.202774139917025,59.87872222214187,176.8463369511839,153.58718330761448,185.8661418885026,-3.5857137005543933,9.00462236674798,125.64497486446967,383.62559411573113,281.4104673176133,143.1461866351997,-94.83373858433995
0.432,22.728592241453896,41.329420630246176,15.176061292544988,-12.153289234541951,24.841328076368782,106.23784229678992,152.36468217928888,83.39067805309895,-78.08280878271086,12.318143349838493,162.63990750424966,341.24337716620016,173.44268932027038,-63.67102535304312,-114.2370138312466,158.6661990404863
0.436,23.192329002565632,35.99079615753611,5.90792493096604,-1.840686504167877,66.96717439332653,143.7376843822467,96.50941627583535,-9.406574224601869,-51.741234234905534,142.83267990531968,523.2617759260099,125.92785485789693,-117.25314040602785,-12.503279551250841,362.9123828307911,520.4644455769577
0.44,24.28510023324022,28.996482542637708,-5.489813200492861,8.90625106295867,95.18297375538734,143.40384745098208,3.6724746523901644,-41.7139069123494,125.10180666947045,245.13451485013258,200.87652387049818,-41.81099367596556,103.23632171703943,330.33187113513765,291.4251462314787,49.75801086678173
0.444,23.869684330341865,22.178979258187056,-13.135266284668354,33.38556339667809,107.49157467969437,73.73009636483405,-5.804615095852299,69.01994840810208,210.76096597746482,129.220066344062,-164.19995306912233,101.33203007347758,414.562517420526,159.46313899117715,-33.477194504810655,127.15831504665934
0.448,23.53404034909792,15.34910404046262,-15.911803923807902,61.34366134533353,118.59846353291417,1.026430500618467,-20.54520164005858,196.37091375182376,178.07587727380252,-48.39177123219875,71.4063903170792,281.95603917964485,171.85209672638052,-150.39757987079798,321.3614277077405,359.0553688402399
0.452,24.555222717843243,8.40240471339602,0.3627516411380789,79.06921998583148,76.93527654999575,-33.753666683528294,75.88533637284871,195.35178512422792,8.567376653425328,26.60721524034072,182.75267873973561,144.34977533578072,-23.884436524730575,177.63944243978318,765.3496182946573,91.09327570158541
0.456,23.591205243434544,0.687686220755527,11.613043441726763,104.46530083532551,36.02007200351959,5.819777821150993,132.70676349285444,107.28467141828021,-64.75251391894753,147.7222762112116,220.53739620976805,-116.67124615834913,246.14505040468538,263.79742375228443,-79.11309619119587,-30.57960092053682
0.46,23.176520816989562,-0.87329166485382,23.37111276946264,93.64938743467366,5.207183672544176,44.544071526187494,180.88497360978758,-18.34148839557976,47.33705097788958,277.67796787913187,19.783988949345172,1.2420636286973377,657.9255006330918,-8.93832418065682,40.89296972567122,467.0526044902772
0.464,21.540389741398567,-6.6875002542151805,38.966535281195355,77.48384595630012,-13.475986207613666,91.12658811596896,122.21710645138069,-0.5875602205995705,186.54338452148284,123.58523092999057,28.95315573170211,340.5504523764887,122.58069936689101,46.223714017956894,432.9444829620935,113.9488662339306
0.468,20.90955319441506,-9.456677975078286,54.3603190243781,54.430605394880445,0.4803530147401176,124.35300317697383,23.965215844377028,52.69199734585397,247.742759175229,13.970778634895538,156.73600559666295,172.08928237398487,-131.02277128039827,316.1247994718774,131.82413617773102,-70.42490466969477
0.472,19.352130739720845,-9.32130795344791,63.52553699022203,22.194204172916617,22.315020566443817,117.2332986147627,-50.87130849710172,138.45197732805164,103.60127535085957,-19.60995849044265,293.18482812125666,-84.82694894047711,181.90044557430173,484.6834834274715,-72.83687953604311,300.5077889797335
0.476,18.522727796831155,-3.847610021592512,75.8368505524897,4.711899986508158,65.78823871764637,88.35062594494988,-34.6875978850689,203.21747131388213,-8.55711519495344,165.35658018450482,131.02370196929382,43.99668342220991,227.17078476342596,-69.12637134651334,211.45254977834853,252.64298183851298
0.48,16.530352835653602,-5.047862277561627,72.68067889068806,-7.6142319102628875,96.22373033362376,35.20244677213223,63.06671263682314,153.0781046357815,-2.815779084020832,292.57603506960254,-112.72743258636561,423.50438577276356,40.439896176899694,224.83788773826907,303.7230677735545,-103.6696833450635
0.484,15.047003384902341,3.3234567691626715,62.21622487047045,-11.57014311635033,135.86219167174144,-10.298669808884085,122.10354401612804,48.496643698273715,109.41038766453099,123.56349597119316,50.27382751070964,552.8180697722646,69.74285302817603,338.3059237173436,-182.59620767374616,639.0154385865122
0.488,13.62399721638838,8.109978784153467,57.938192838276,-0.6380920416814959,97.98481346056906,-23.5982572853366,193.79902832168557,-68.082203003475,170.84161958471623,-23.973534793845573,244.95678853321718,1.6394341863008037,252.50334569452895,66.61295871371637,166.61714048041875,197.17648152627402
0.492,11.747235012281191,14.009671450670087,42.535870996955445,17.157751899067765,72.80921890477381,20.460569068741243,116.23738285429127,38.23215570066168,205.36951232020118,-27.396241839090933,187.03290369271974,12.216821307149502,194.91711323901876,83.20829648860416,480.198900465782,70.12914925012615
0.496,9.99999999999983,21.447692792983652,25.887143970526232,47.47961303431926,37.318214282423654,76.81171648701951,42.00350632797046,260.95142310033106,56.804881904140366,380.13812022643094,16.38221967209762,176.57867042050145,-33.95406739106559,235.41418411077424,29.023653047866077,259.9166183625031
0.5,8.141068552176051,28.20120591263546,10.28461798604366,77.22155015574899,0.649955140969567,128.0985848946728,4.122991625231364,304.43111010701944,13.641162956548499,483.5036219879586,10.208186752948095,229.84594693846856,-82.61309288216992,272.92895895500084,17.589323265602133,306.75280817186734
0.504,6.623684230336272,33.55278002391138,-3.8725348080921123,97.15036987350982,-10.989680969062618,155.52620377367455,-30.0638952338889,184.8967750798142,19.537444572297787,248.00316779434468,135.92125511123734,43.968117125939884,233.73179490192715,-137.1831254526112,448.8762941621781,-226.43273382672606
0.508,5.045662689199051,38.63974793209856,-13.689844918418835,98.11594117477881,-17.275763447825966,97.20413924054048,46.12263619787149,61.837122251090676,186.35989917163943,-65.33715448291585,280.6813171086901,-127.6456584286245,330.9120748275107,50.73828668228114,274.8502668874227,297.268153326146
0.512,3.0581027962643663,47.04404562163165,-18.71183271556582,96.13694686075036,13.757878566034044,50.984516504749664,124.95905945152941,-41.0867238796708,260.7072102686351,-30.696650171571804,133.48997275368347,178.37346359625334,-97.34115658645368,464.5410359979889,-159.65599706098732,261.83447853033687
0.516,1.9224206757137665,48.88795110157963,-10.929281793391468,70.07942280787542,67.45839379018844,12.055713410336807,149.34463584856914,10.809896505283234,129.05074834828125,134.44507009488953,38.111073377309836,220.61435998213545,43.72388770179043,135.43686988002096,484.5388365871984,-215.7930739910763
0.52,0.5242104265692955,45.78712409924499,-0.022601651161640035,38.67347004820407,95.4312321195488,-5.912184952976048,153.30520721161582,87.04797404737782,-23.21458259301356,204.7368977979744,-11.243629801661754,104.32568669476709,254.682998245686,-72.30374380995437,186.23381828795618,212.0937035848737
0.524,-0.7293634306351482,46.29497928575769,12.739313612764743,10.515289433091723,130.35113644627893,18.388172901336617,51.420586962689256,189.8254608536712,-44.99692230451731,137.24887151160743,429.5207939823998,7.087267977402647,172.14768187237496,249.48917301852742,92.08261016827359,224.50515839097102
0.528,-1.3960132209258447,42.51058725141519,28.830622488397516,-6.466300425215152,103.4534582592589,59.894739263931385,-29.346553443786476,207.6387604348942,93.22295977833647,-44.86208864672989,418.0202044534074,129.7748630433638,-109.84093156161407,330.42049350003674,160.50101188221115,-206.75352006142037
0.532,-2.925665967970657,41.5640532599347,45.00415038454273,-9.555658575898825,75.26052164278782,100.60865393545856,-4.414657548668998,83.10295613528895,183.1934747563347,37.04451532682101,81.60977106503881,365.52681027702647,122.2827916730827,-67.76833385577049,347.3921634757162,159.49014412277774
0.536,-3.3392563245938334,36.21340449269965,62.03223302635201,-17.571094863487808,35.49190609673248,152.17875490672895,44.04588969435749,-38.38785032461132,384.5088379783003,157.11568027588092,-25.63765374280632,138.01760954416736,516.0359328693303,21.450450918095257,10.645325126288128,815.0635215545531
0.54,-3.334396107920618,29.63766458200744,70.3332736378606,4.240935318729981,0.12927250675650015,110.66537741481372,130.0691025964394,-51.125287232762446,109.89977982504962,216.4424332874251,109.59140247602008,-22.21770339937237,175.92356068379112,601.2874366072035,71.9549564557938,-33.40502245896039
0.544,-3.8290937401563614,22.316926258890803,68.4201324358886,35.31556752424039,-29.866680162854905,71.93555685532496,190.2892691669369,65.20469615414004,-98.75907499773552,127.0301885745693,197.39903841023443,95.67644062847991,48.09067445987969,393.1170139764398,414.62440934356357,180.6547932967753
0.548,-4.6243035755574375,15.024234573107709,71.86552643029626,66.18168411560143,-0.8162951629893058,17.952018305526607,150.23539821215266,171.1634899608651,28.594161827176315,-30.00909614433698,150.12838368402427,336.8129733187849,94.2768732568111,-58.549378342202374,131.30996002388497,436.95709822368934
0.552,-3.965463209215729,8.553968896647483,62.53181218900916,86.16729076920986,17.269661694936637,-8.115800627462221,63.63035282758112,162.8453079025885,132.75647803314948,10.915018245088461,-10.130450584406617,198.0547255908067,224.22824428655753,162.89221973299692,-118.66629022984887,70.26979403989994
0.556,-2.994029064614814,0.5442383375977826,52.771188076556285,97.42082405283259,62.84910989656889,9.072619041885154,-38.831411719697854,98.9308068018904,192.60369763777373,169.45033835492268,-49.530504585063426,-37.676218299095524,135.5738537307679,357.72988038768466,217.34825183079818,128.994979911903
0.56,-2.519740387337336,-1.448473597228201,36.79117085715429,95.39524251281546,94.05958688603283,37.13728637476397,-46.80672059196101,26.39866515433971,114.34894586156341,196.12863005463953,203.2800249010793,61.47309680853803,40.49436966697816,83.95088662204054,236.72025547167894,520.937957697834
0.564,-1.966398144031773,-8.390249913517003,19.08759571994245,83.60894548436826,129.99031897938139,99.19036810094937,37.095870812595805,-2.759816138895957,7.741151490523606,120.6498939737276,225.850124641607,493.64914390189415,153.8616311102294,34.046395716393235,5.155147057138095,44.55420186889846
0.568,-1.1473770452223242,-6.803355351902635,3.1350102910826827,53.816175594140915,107.2220015422531,122.66716549671534,116.94221962981953,43.59862185025007,-2.267711747746006,35.63319614881081,56.7286362663099,170.25883933753695,301.73441161758444,229.10402854354362,171.0401727528471,83.54495662474281
0.572,0.3889441158018361,-9.128893091192548,-7.545082199812285,25.650551592853482,76.97587615302677,151.91033947172804,191.776738305442,122.65867148410149,78.27886423510364,42.816959205165304,-79.15258305543279,-36.90736657811976,91.54060738515011,167.8325868113939,732.8552819115539,298.9353968873074
0.576,2.059146910586196,-7.7980976043869354,-10.066979327366866,-4.91955419093955,36.99588611129231,93.13272301567852,134.67652206306497,154.65306366732653,156.03278094619347,167.47312179643097,90.92227334345887,-3.995975612501013,31.736970192372638,-89.0508651489904,-0.4744660827687426,116.69681055476377
0.58,3.437749171773821,-5.185498680449395,-12.157537003786047,-19.893565680339997,-9.761101674116823,32.76053148054092,79.12628153570398,118.62023746021524,192.16799910421508,282.3708581285681,328.0999374520363,180.72477117556096,212.20568880498575,117.17126416013251,118.80553631189238,-15.481154468192074
0.584,4.894762463831998,1.4984916449187224,-1.9906803324906157,-11.424367880504164,-18.84817724004556,-0.38354003418589144,6.230221734305211,13.331032798397857,74.46860518378188,130.8045965981734,153.83799753689487,236.7725562976029,281.4838449295539,290.87592980091335,317.22615075134286,444.2635459885216
0.588,6.568512922086395,8.62778674405309,7.511734469029832,-7.838273252236327,-5.589079692887985,-4.617833016268236,-39.17386392446981,-16.56221889174067,-30.909755077372907,-82.22317645953098,53.6902108650328,-8.057849242345924,85.42412175939043,112.27786204974916,137.11260424297717,175.4006571772225
0.592,8.274004237104618,14.298929236789952,19.640610309152457,21.34367202506376,25.562305459332492,21.423560366552692,20.014895759330592,7.823961386697633,16.988809701944334,28.376570795737422,-0.11390378668238554,12.288471709074486,66.91152372593626,84.27769715541378,100.85037143290472,-79.83366404308393
0.596,10.000000000000224,21.360877923730605,33.74022164202048,48.650058474494145,64.01204941649264,85.08897516880391,92.01690978737278,111.64915613666157,149.31918327353128,288.24043697426293,157.7718531573871,227.62723328846153,252.76755296423835,336.7917563713826,251.81360332270847,697.8772425006111
0.6,11.691251677685647,27.885605433676165,49.76244532109847,80.48195531274786,105.20145961127479,127.49724289304763,188.75989967488158,200.33211341749893,226.52424767320912,509.87827504983767,250.41611068358984,290.40297493246726,274.39258531376055,318.1212081773133,302.7517203702063,472.238289079204
0.604,13.652309197923108,35.694961685785756,62.95553547772663,88.57575001692516,110.05971397394227,155.2456766687141,178.32307741954196,182.7018990547196,153.46191644851527,225.61671858041828,82.38034437316904,86.94592895529334,-23.26329319466663,-55.6615301978041,-138.83009020800938,-216.6308546999208
0.608,15.347946980981668,41.92572991420583,64.36838973194983,87.1476073667819,109.27350270778672,124.93687046346832,93.50638471952097,54.828281572549585,11.241431567942087,-34.18570222242289,-112.15424366854234,-41.071800397619256,80.18342063976996,103.58011976406084,156.02425804668445,219.14263889446966
0.612,16.81017181715713,42.972148348821705,66.22584609831856,89.38490252233302,77.86385597804534,52.4912430721721,11.747981391812296,-59.077778396456466,-47.01435957503142,5.5703647421319715,151.014705544268,180.57361447985133,461.2402471804605,732.4388204019447,466.8573114451885,356.9678220785246
0.616,18.49846211063756,46.037585253984375,68.53325244402484,65.6952176167292,38.74287950027163,1.877056832154878,-6.767306723766168,-2.9830377378338824,55.62786609443536,162.0089003107892,547.0973975201919,212.55575685197806,189.094554036112,252.10879426630274,52.717654457338156,30.109626339736792
0.62,19.89073965499806,47.965228028737904,62.76369224658437,38.48840967434456,0.2774751273545064,-46.85857392964297,-10.92268171237761,195.97961712076608,174.2910929361103,239.31569500583583,427.7891998259647,84.42729584298247,-64.87422039507595,-159.86759429127204,50.5625655922033,179.94217654623023
0.624,21.089930451524772,48.35889030096283,47.94013864575896,12.990509158580107,-20.085627928366563,-14.896680791102355,83.94783008351082,396.8132519792659,193.00630413231784,115.93703564268046,13.6464061680702,33.2796459151935,21.4952088817287,253.6845611525018,403.75151197959144,298.1487996178763
0.628,22.090140159376418,45.3549162387494,30.955104279875975,-4.202600724884995,-4.64210802697027,59.86480618502744,148.30877842171418,183.28931023414026,86.11009824361666,-63.22763897586566,-21.79408912584279,130.87551226882442,340.87361535110506,279.39916653233036,133.10943228531949,66.74861313326343
0.632,22.92419278147161,40.652030089916025,14.295834607731544,-14.530103272867102,22.20077953023991,131.36408344233303,185.35684118788828,84.06143522055555,-7.9463766550255315,20.962570931021787,157.11985041311667,289.6468500686758,167.46036185268505,-92.82264473332555,8.138293414896452,158.7299436527876
0.636,23.87535168574575,35.53728938682882,2.453952296079592,-10.602527544076864,61.4695823048234,156.1139650756897,97.59911151858103,-49.006240647758176,8.540984519867152,183.4471108700423,308.2633751282632,269.63317276732494,67.79786600816976,46.56041526027293,640.7842564871894,484.9102449721722
0.64,23.52072186557291,28.645299766446385,-7.635226855759591,6.314892091934141,102.75855002276964,113.17496124422058,15.505554420393779,16.33566517300266,110.26790502198449,296.55940528106714,110.45116249248731,-36.333457673531,58.814975450388545,372.84354123976226,540.2342721452958,-127.68824844613351
0.644,24.682711264700124,22.255080742771845,-9.390208619961584,34.96754004186249,128.37657173661262,72.19715287409765,0.6500059033600678,64.21608199201366,422.5412335631312,133.32610048150525,-36.70549090198523,164.70073469497584,395.6027442224076,167.6511724876681,-56.48587146184417,121.27796938504031
0.648,24.240134069367613,14.675117945153877,-8.72414524584444,58.25555904115479,109.34703403639392,5.717657823643968,-24.84954194064393,167.39470674783053,333.4292783311357,-9.754025423715447,27.175766911021427,274.5884028874939,144.10957178096547,-40.419434981465855,168.55362695929202,534.0729370051979
0.652,23.45370830873853,9.445636257172685,0.8077424782057676,89.59956621038523,77.3774687544507,-4.397148216658479,75.04991923044084,184.13858354271332,57.5655386554311,27.999487090422093,208.64102102736246,201.67815647970977,6.509043864767804,165.95829884434218,280.30014161821305,75.37841944626183
0.656,22.887429538497578,3.4501427635047897,7.72432934683356,90.37436210255412,34.87165924518329,3.0248718517014836,130.97157170291825,102.2673233764051,-65.77933104134095,173.60453456367617,165.4413315344272,2.2636526981495564,127.71755419527074,242.006555324305,-32.47854670880281,46.82678865376079
0.66,22.848792046688388,-0.8642871687978015,23.69677489786411,98.88017653681125,-14.804628179753607,38.970398275012286,175.5590230268545,15.207963764773112,55.58572884990213,194.38458091206093,52.648357236226474,63.48690097785171,345.6803710489021,91.16336215039632,116.33260113512584,702.6084668415342
0.664,22.49207482913259,-8.480464442839981,40.25588725270318,72.51002542396105,-5.322561784813139,89.23256008664572,117.73977634485735,-66.28653330407738,197.26561167075607,127.27240313608019,28.71408604767832,302.5120210907559,110.02770070619437,54.52608177684982,300.10139798474677,107.93355218857565
0.668,20.699126878168627,-5.539784367936338,54.85596152887932,52.229785308685194,-17.805764178630554,147.91843107305544,30.613272095653933,44.208708386908725,224.99426866294525,35.02637710829326,130.37048921971808,246.930015660177,-33.51845228695257,379.37209639148637,136.57957283871627,63.75055339952864
0.672,19.274570739585457,-9.909924977733809,65.45684801724494,24.950713338342943,16.950684187774385,144.5046897958803,-35.610502254333824,122.31530713346639,100.67517392180127,-18.519317800793573,195.59582314358101,-8.504704788233227,146.21973126249748,230.9230510194179,33.450074150584925,342.728308441654
0.676,18.32005771395041,-7.050505067641435,73.04856331241443,-3.6995409043881438,61.07245310770354,99.27614674728662,11.739050904565197,177.98558331099727,-49.121124865481846,185.92945185161975,123.03516529160979,-41.8308460907584,240.9833392841415,-156.5760849399034,331.97191881591374,122.84285559855135
0.68,16.909556806623957,-3.1372751044957496,70.26224111539273,-21.666815759931175,114.12587832003476,21.796956829584524,63.7607957025622,145.6833303032643,10.05372060362734,296.1072979920061,12.718948868469937,250.00071064871562,142.06246256588372,212.37982592366018,286.54076792707156,-5.866649038018181
0.684,15.402147445245172,0.5499916188821317,67.90800963568871,-26.147885089279825,107.54347494787375,-29.647756747384435,155.59007981333667,44.597789230976275,110.97853677076996,120.33297593859831,4.450478719471789,228.6866451592373,-27.33396802727765,510.7437508802825,-13.475771098028503,395.2358908952955
0.688,13.348466397177653,7.653308749924101,55.278882836790004,3.179522363198714,103.14206030718967,-28.955747036317234,188.30924990293303,-38.855002767519,177.76951009570507,-18.598480410063416,283.18801303046683,65.86760694256412,505.68544750306313,71.80217190332789,156.59571133926988,200.136549863278
0.692,11.746888972056476,14.073154338759199,40.3086232272991,17.925420293987603,77.47169019342856,21.212353122851724,121.40457225311226,-8.998017134861115,146.8162044374937,45.05094575590707,237.60271008578042,-62.58901211172511,215.01553441170313,14.275863396013165,269.4815361012462,-218.2755527757157
0.696,9.999999999999767,21.323029327986603,26.10906385928853,49.4508802415352,35.894006921709746,80.30730318995701,84.0366956235665,110.84733282870738,40.67078681712404,306.71328208728914,30.55347862824408,253.5750666476924,57.6406038726966,339.830343077375,-88.63493972430626,309.37956412089926
0.7,8.298062633987687,27.871828964647754,10.984603433639354,79.65374589454385,1.7313185792098835,127.02244598381888,-45.72624428307131,181.15417913579012,-65.41055271002381,412.26730721208776,-70.77972091658052,338.05842622865737,-27.545064743711066,292.961257579174,83.35541324194006,308.5626982573664
0.704,6.41464743831156,35.86364889770935,-0.08026246985329877,96.22656399811672,-22.90168995213,163.54043865983087,-12.206807944133203,141.01613549416734,32.87825285800819,221.6671643146256,235.54751871049865,37.10706819541646,264.89831757293024,59.177148991180985,775.5824162449996,67.19941813590876
0.708,4.999478426412456,38.56898777105039,-14.5256188161054,97.81270052052378,1.7178091725375069,116.18508657517751,47.2684984916939,61.626456741178224,134.7428986929243,-55.421017282846776,458.5279280074442,-91.12171333813527,238.1332017307208,77.2570026356323,299.8312739173619,333.62615525274134
0.712,2.891238298574735,44.31682741637464,-15.866241779748663,94.51437062924188,14.234155496061888,46.95487893987272,117.70752139637617,-60.43118469554898,183.17079252660847,38.206265595283874,163.6619665787926,142.43369172467877,-46.84990296379411,299.0593957768706,-126.25119797991641,276.95440501564474
0.716,1.4717214493010289,46.62934891926114,-11.086041515747063,62.664942209632386,65.54549999254873,-9.04851202812506,154.87437041790747,12.832458899516212,119.1636564576244,161.48890345743703,-3.913601969962599,499.7285246177014,72.76206756481895,133.51979580876235,388.49420683256983,-226.6474564488763
0.72,0.5806025775700459,47.18302398126907,3.0991729601876763,38.876567188934615,105.82644650616626,-43.15227540484898,140.60729150729725,89.88977776573354,-4.0600101029806694,208.7362600639909,6.233365659925042,189.9671284091513,225.44006235635212,-105.71488474203517,264.12368787459246,456.7188179596097
0.724,-0.8519006158020836,46.26716647914871,12.525551072269316,6.323159877695133,123.44559998871087,-0.2866125775140489,55.15040647605093,163.15482868737627,3.3387261904584022,135.93107735138145,225.16793686493233,-54.326142872309504,200.8367003914027,217.42858501445608,36.30348268365891,773.4131564108609
0.728,-1.6675510251001224,42.503921736162056,28.894585406666597,-9.993436506070402,107.22039981044807,59.881460224737694,4.786948729261766,158.68171657654,91.78900477726609,-76.36429548513888,183.93168483645562,129.37462925484178,-12.06766308061276,208.6585784183963,161.987002617263,53.01937048901239
0.732,-2.8334151141668986,38.99379206894643,46.63502681568339,-11.910841780902516,75.86390201808767,106.42231044923403,-38.95531190592786,83.86652538723294,171.07587337477923,-45.53371809189696,54.58009242085435,270.7732386221809,36.5229493193454,-54.224736772472056,357.2975827103212,159.70788948212123
0.736,-3.085062114858607,34.03942479757565,56.675279292700885,-14.701937674643574,37.7609062007203,149.32203085780378,32.59881343013042,-32.32472219028696,182.99209392483266,150.13191681692825,0.20933877683343383,133.8945297229492,240.63896042697502,-38.95652440919753,2.937948630409437,496.6339691937209
0.74,-3.2262853509536953,28.967917810127364,67.75479700228922,12.007583161379618,-7.155318900361031,121.74924346865583,136.4067757620316,-18.511965143219214,55.516339319361244,266.4540856359848,109.7660350376599,-133.74294144541386,180.3664255866792,278.42728216944386,-24.90931360016438,-18.929611743517086
0.744,-4.4615613059038015,22.151681307228493,78.55919862963556,34.175488970918735,-24.31923449051564,72.01193354235076,185.5151070517207,128.67169571710772,-67.16318081506438,119.76261438293362,291.4947419112595,81.83224918932652,-105.7162053375078,425.862072913379,282.25466528343844,67.48389099150427
0.748,-4.592370565560708,14.82044700889019,69.32830384888419,65.50031956309883,-1.914629259694621,7.760554509702828,131.1069493625509,363.21059456618747,-0.555279796548092,0.6772129981689403,155.8937360780841,237.0212812204242,114.13959654316413,-241.62883042757187,133.15184011678264,358.91144819421663
0.752,-3.2284820070212437,8.522396422833648,63.45487044341705,77.65299486882394,19.490092839146325,-40.512514315409376,65.99801318215398,203.37810580788408,276.17521560971966,-11.59427285497567,-8.561211052769849,142.50784431807256,374.51854435817256,339.51674283388917,-38.26359450086841,130.3240517838185
0.756,-2.977809225464652,1.921872196855798,50.31002101260421,99.61813994292383,63.59677851132503,-5.996982218850803,14.613052173770889,110.68938965231783,407.52636233348585,180.55077357173622,47.896331809748226,39.63564130665122,266.5525476209626,437.38143177884547,368.99427810001987,107.07195669089373
0.76,-3.2364125823636076,-0.8486998518765603,35.819689835763725,84.83974220298941,100.71497401741158,40.95191659048144,-10.007296879735506,30.66550747153517,250.74015090105968,224.81350232664497,161.8826977653555,56.608539192570724,-115.23835297082576,96.46587032593682,298.3264092529388,211.26571313785885
0.764,-2.0452558934100704,-4.4427272179591455,20.173310964899052,80.4879237204924,130.53262072745076,101.78942435841569,37.761218116119316,-31.773623488077064,12.997575859519742,113.82685078797579,240.7151312880423,322.2166881708015,317.62841728573517,25.89891574037351,-186.61471391780032,94.22082537573509
0.768,-1.177542972674166,-9.87298762624675,6.742748245700582,50.59836448802359,103.49961814015259,130.91957006289425,109.47307348595089,19.894247577066032,20.612613920364453,32.65592139190993,90.14695174178934,256.31771651097915,221.4623146713427,314.42578619592484,326.74875812738145,18.008845512231346
0.772,0.5961949375706332,-7.749065140892103,-2.829525168720643,23.542725185317618,75.96240774528611,128.79640599190535,132.8270912638045,155.98963940967843,75.19808361589067,-44.76775620837509,-49.85686785418946,-43.81873433118241,104.52645414796274,290.96826131745377,656.113972525807,356.8900264662305
0.776,2.088899122926227,-4.387740249535465,-16.254783354634448,3.9130706035388627,37.49364710603235,96.26780921871688,154.0543526922798,178.13402706392506,184.11887346707388,168.1513354643605,79.32301474084059,32.19931772856144,40.28349635430756,-102.4462915127333,-36.27527065773211,235.21616491540024
0.78,2.890329422879905,-3.8086283223363537,-16.83975129264332,-23.85314258110808,-3.5829241304037254,25.61079044230098,76.00469965861463,142.44792505331367,148.30045199905436,184.7640390482378,212.8079943950093,281.16555793697216,180.00010853325858,105.56666099782049,100.76686917456139,-109.50113470605118
0.784,4.9747422471911635,2.299886784288841,-1.2987666926253603,-11.493974185952254,-26.751207541695123,-17.35319916602505,11.065319454298404,9.899566163531063,68.71552105355448,114.07428205723562,151.4516378865203,245.29850699906987,211.34790992787458,410.33609608749225,466.17588113051943,706.2195470559327
0.788,6.456013274200884,7.76053936008446,2.2781706454598556,0.521422301844467,-24.043542942085168,-22.18648412323202,-46.15090106060764,-68.11410091137532,-51.13578853346942,-61.64497342492376,-74.15524219916904,11.062464679498135,34.41773397101571,119.43547313270615,132.49704163322411,182.1030952139675
0.792,8.193749997116027,14.119844910566812,18.087983384731007,18.141621086866486,23.456096696600362,16.338944034572002,-2.2850810515355846,2.702530640212302,-22.767226663512645,-37.34335628889397,9.756581360375094,-62.71773418100929,-21.955629328654,-11.876317734231463,59.55034961649547,-166.7926822731116
0.796,10.00000000000029,21.48387656267394,34.669330353555715,49.50371685103771,61.6389844355054,78.13263333509738,109.08271854992725,115.49066886993316,136.1330454852869,327.1990523375847,374.7665397879754,352.7412463352963,170.7184875052093,244.26845133554275,289.4806345686852,190.9450038475181
0.8,11.694058481958438,28.79656831282718,48.95928272128472,70.47867582401538,97.99612880518828,127.17824929932064,135.02325040126505,220.6168985799883,269.4057231155736,467.16855872712256,258.34650765759034,560.8024073268703,225.79478510070442,314.6264500222694,257.16299605843386,251.7364405274775
0.804,13.566837156007672,35.239939440421765,62.56786459442409,87.73712479038943,106.38944999158409,156.14308646215846,134.90476654423034,138.2357825911408,125.87501312746272,263.81845193876114,91.97197083838613,71.52028376418346,5.352536527835014,69.5199623765824,-206.374309399734,-57.96093255952243
0.808,15.059027889888613,42.00254071264027,68.84606601854685,103.17001700647677,108.3585768833164,95.21416151695817,87.51835388780304,55.80026845299993,-16.80957792075057,15.039043528338937,38.180920117532324,44.85773004071548,71.78536112013387,64.1899219368867,175.96656326784378,321.36530429047815
0.812,16.8993101699554,46.878989990947446,76.51269587898642,95.00462985578332,80.96791174267437,46.84747754682846,9.06255301917195,-39.75467563042481,-77.62716801982933,43.351319413148325,71.52134845004392,176.24145017316084,190.48020892985545,678.2575620248215,403.6643523405161,220.2448288600334
0.816,18.14665354131018,47.88267488451274,63.93528605079056,65.20642602975724,38.415223236847346,6.023872710968362,-16.477088893150807,-14.805110892868498,69.92478901186541,140.36229164259385,294.19264801043875,296.37219806013746,202.070687644469,274.4130980852325,70.06728937314001,-43.34956109546843
0.82,19.813620931114972,46.01986172737013,57.746758120101966,38.4146827452227,9.379414362574856,-23.30428967025594,16.84450542468612,87.45271606362701,200.94483342034334,289.50880901770535,240.2008039890825,101.72638738405517,-47.88562522037364,-213.58137895854554,12.541362256013429,228.61542902731
0.824,20.492908560521478,48.786960287015006,44.44704241199841,10.916496947335652,-33.11555419717733,9.944010279250556,83.2683213093468,161.49937515658448,183.96805689676756,117.75017426636192,-20.85345811378079,27.652720518623354,29.53382664292657,207.7350455052715,259.04372898088866,336.35264919715104
0.828,21.35614080521701,45.110000510970494,30.98362575504972,-6.210233133275096,-5.858401812363816,59.903898445101326,174.5932284797861,141.6949557186164,88.03767998547472,-64.2480082439628,-51.05034124394487,125.75331912125101,397.1025962982779,265.02482163126365,297.98214891615106,-150.01313249853877
0.832,23.337462793821288,39.2541940146698,16.20028296322706,-21.696649542907252,19.37939521633395,119.04244253568622,168.08390035955156,82.18479505717234,-31.17641789763826,14.167981788723893,172.02860782802497,342.61092921156035,384.78723085402896,57.288584934117736,-73.82570554052421,159.4671779195844
0.836,23.947487026112547,34.6938800126743,-1.3185956104340768,-8.240101008020567,62.47987710139327,154.86007740499076,181.99249555029303,17.45039936392461,15.837461110894338,143.1175441572763,257.3172122206943,128.03337867285796,-141.14758455065254,84.3923893940779,460.43823776261013,720.9117642275031
0.84,23.86258955976046,28.44182291119349,-8.02806094386041,3.331486589699672,99.23312203671986,127.92171847706497,34.82908789388627,14.871164735367785,135.63760301561769,174.58214513461468,110.58812129492846,49.18821613379177,135.7308431876093,285.78862437878155,247.75162254573684,-27.50901712946103
0.844,23.723220848506898,22.06586013943133,-16.316801188782662,33.174415305559464,119.19287708252904,71.6174698863157,-46.403199472448705,63.41633341818725,194.89533801311046,127.75740151132283,35.105944780552036,102.66349524603905,322.32224061694694,208.3620043144455,21.388372739130517,225.51187218194855
0.848,24.421627327110443,15.08824280305629,-5.127861927900284,65.5591233257189,112.1383767406822,14.29209477389982,15.602404822361159,181.78060250966146,191.24997570061902,22.284357676330075,41.77052881013772,356.4755289776131,147.68000658776464,-61.96539259370675,171.19136750676884,220.92671326664848
0.852,23.691670678049952,8.85593024724157,-0.6637267298098308,86.34419844290711,81.98205928286961,-33.42070621551602,75.77416864605208,194.7340886632579,20.66519201280731,-32.86862467883233,238.22438025092907,171.37569459944854,11.278188866602463,188.5828634700817,205.12875153635792,0.6964759467030035
0.856,22.945872381453835,3.0120240847936657,9.899372182988934,102.05040883256557,38.862192580288934,-10.066919712261097,144.38261301289782,120.00738281881765,-66.43039763669822,163.9093614795758,265.2388300129516,-36.79894331929984,126.4527657998299,294.93720500136646,19.246295345885585,108.76630965020647
0.86,22.27578600882969,-2.003298453861184,23.464942704173026,86.77378900941179,8.40480973475536,33.16996501145081,133.1269756787463,-15.51899395636201,109.38962914721378,287.6728903621648,-18.582290207384773,53.21914495373916,283.57917459470866,81.2872572936359,-34.73814442572984,277.43495947761767
0.864,22.466229881099835,-7.474643858706454,39.67112594722163,82.79004394987143,-24.08131759820803,100.50497380010613,98.9128716106382,-48.784345951193785,354.7897047988886,137.13416044561112,-84.9002045515899,222.13400951825736,118.15037501961866,-11.405505669207855,289.5203403560431,16.940693827487735
0.868,20.492803512020117,-6.597603680893975,56.84292276313316,50.42778574045605,-2.4939066616017698,132.9045050394015,20.07529149412786,79.81110338193112,356.4847692303913,26.7205758597089,160.17563772626497,221.9114137015735,-118.7711035661805,396.3199338608318,131.5092744537358,-40.73878214049458
0.872,19.69047501457859,-10.049190623894354,62.52609810410058,25.051461389599986,24.784003103149434,151.1279540865943,-6.752244588413674,293.1092476983423,97.6413044005168,26.427064927735643,333.9042079852346,56.080965002813514,165.91299347001927,187.21574131926067,56.49961880426045,345.44878209235196
0.876,18.095825667142734,-7.770494017418379,75.02326817919354,2.556897556039459,62.52112412862266,92.94650623508133,-31.23583115385263,237.51395111089474,-37.60782340109344,179.3345893732995,269.58087982449763,10.220507488065238,204.12835582668075,-52.08355289779644,210.66523998302637,139.75192287210274
0.88,16.492353074730772,-3.8171246999735793,67.11448211080923,-13.781971432834723,95.98936442485947,28.754740099010682,65.00531671606568,127.92035838677802,25.58317269544193,196.25324296143694,-67.94531666727403,413.9827962212431,50.91852808097323,231.2367950837822,302.06348624002317,-10.683093205138533
0.884,14.977857854352376,1.3433006905009321,63.066718941397006,-17.70183656099126,131.93616421271585,-0.9905554387252096,159.87533099367533,12.907736590158748,114.537798348093,129.80520635168745,88.93065286746604,475.4308168209336,-40.38019706556602,638.0972636492625,-126.05126895004156,270.5524733816635
0.888,13.343902205159871,8.766028374144996,52.67704889990328,-2.397017287643763,104.0540420265515,-10.148429562059007,188.78752566313145,-9.269683765959428,192.2285339264776,-65.20321590702156,260.00825867901733,54.39081199105074,217.98750815634713,217.4827831688136,175.72768559524536,166.21497313426104
0.892,11.73447236962051,14.006558020476476,41.57083805167336,22.972825718136583,75.79411459580984,25.790162257310115,105.41701997869512,5.700399415457383,152.01208147203158,35.820191274001715,285.6651729058975,-41.40116077321696,354.4222539062333,50.306058700274136,890.2899168127587,49.579996623807816
0.896,9.99999999999967,21.38010669222637,25.868740049286266,47.31465900387575,34.45959284946348,79.10349886283905,38.20092018217552,123.38890865252972,58.88095385355906,324.9402626977118,46.270411046169905,250.5186773358501,-16.13481762110493,230.25331108435614,-22.62823853121256,559.9820412536255
0.9,8.168571070990524,28.701826781987915,10.411133246267227,77.21554430084029,6.774273183316673,138.2265705871564,-9.985462669459139,167.91974657849318,-24.57064815487678,393.38566183122816,-30.803825209225664,312.22205801215154,7.967014357961446,267.0414232996641,154.84165818986193,509.42384751187694
0.904,6.363814373319805,33.3745498563391,-4.1002186541872945,96.53282816944723,-28.83494114717479,123.23096501132541,-9.28921315009292,174.84257851469465,24.09752422813662,252.63889323286986,134.7494954892202,21.20410808382894,281.0970880188105,-44.78393171345883,405.3959400022857,-237.44214177136752
0.908,4.811240362393538,39.31009655336905,-14.3765926354545,88.85638272602375,-14.811185397403264,102.06441969349461,43.184823000052944,63.27812085308912,195.52808132674534,16.796960751081983,273.3162363380381,14.790207530579693,569.0931113673219,97.67449049117965,130.82064948487957,251.94788850905155
0.912,3.3580504936501505,42.62149015628684,-15.259009498426856,92.93927831017771,15.445903850334773,48.41019717001124,129.1569324196494,-63.52779677405832,175.09381680617204,46.17795103362045,167.81986803186916,164.34569263136686,40.535113913976744,345.4715463267736,79.32916073493499,230.78739307913335
0.916,1.3521498791359665,46.98757209086881,-13.091043369441998,70.18007360555234,60.56831013232692,-10.516335583477414,168.52521588945586,-28.58407421610643,116.16286959922229,189.2160358804077,26.508640543521352,264.53061641423676,26.729174032613827,136.2527413963743,185.58105014256063,-45.139791978751134
0.92,0.08518462069192978,48.62104390531763,4.176123764859273,38.54776222316812,112.27708513039187,-40.12962278814824,112.72900508523844,94.2466219298937,20.68567480015389,271.19286805274805,67.66711401067668,79.61612670114546,258.31545941592873,-24.486949425193984,241.33899228608527,225.47999211328488
0.924,-1.3205495076409512,46.21586084512245,13.638617549994063,10.547374651720961,124.72830029791166,-0.7149278786708848,54.83994491216817,143.47920970447302,-56.8216678982177,122.75222268001875,157.862738628298,-68.80865129844324,213.68322541424624,174.5402368041491,-70.60863476063525,349.56318865361493
0.928,-1.9309370052429191,46.51700704766693,28.95565007653631,-15.754690499414878,124.64653041875182,59.87048916277983,-26.388521748028253,156.1175134813604,93.39049283330927,-66.4441356691901,236.48491981397558,131.2440704431768,-133.49450843530389,249.83225618555997,168.92585360485285,12.932451019147067
0.932,-2.545992370048081,42.7330877389848,44.70059284014574,-20.76343225664533,79.4691866315794,124.77500479920248,-4.54157004598099,83.85674615632172,210.34297680108108,10.995407926577087,81.48144262569392,322.7529764309944,62.748688001783265,-10.027392640062772,219.35330956742993,159.0587897488862
0.936,-4.009767621214339,35.55786364470207,55.63492141496691,-10.68528081191591,37.23941899765293,138.4900680466364,38.16799501994337,14.791153253821918,223.28672345521227,157.24512339192614,-56.48854701075473,134.3691788846833,255.62759611482375,26.63997503319068,-81.852137764145,502.63058519169016
0.94,-4.075435729240921,29.23734962942347,72.74618793289653,13.317801146464976,10.106313044707974,131.9371972812238,137.46223998054057,-57.3081687829266,68.12692433100612,249.5940166413158,109.60882513949232,-144.44758558162823,173.97400702828878,395.6919631142571,56.957216171750275,-4.034768715830552
0.944,-4.5594456603880165,22.17673224923462,71.53514103720286,34.82010482525695,-15.504542295774314,68.51911762996227,181.90348825777772,65.87456387005578,-85.7856681495542,130.9843523837146,201.09341752448157,86.48051558012227,-53.911141408491176,163.22432871040476,353.6699112802414,111.00119426272198
0.948,-3.5622687260371784,14.800441289102253,69.3942322135494,58.42839804390497,2.4558859501350483,2.433420771801856,137.96653076057237,181.1300187682457,-8.667602094622339,-78.22288213067469,155.6775456592882,322.620530783043,94.55111111960184,-48.199696475634425,124.28162002241184,414.4794688233558
0.952,-3.864533688922595,8.291630563667297,66.94238162735257,77.28427055319169,21.55823449035956,-27.899158714459816,64.04525854402287,220.34836020305465,167.5938985101182,-19.093075603523346,-71.60507299451282,150.04332518728745,303.1239702313464,359.60747971196594,-94.54187396047794,119.38299255948543
0.956,-3.0672458522679555,1.0643329345494728,53.53078052214144,101.82451183509787,63.53195817166687,-0.8014891183010135,-3.997510616672656,101.39752308336965,236.18779422871026,177.77905959504653,-48.896889720262266,-40.56668878010157,132.17790437952294,481.2073471151854,495.0393947198145,177.228490163792
0.96,-2.4854138521771265,-3.248985130995404,36.71717345205537,83.19902254446544,105.12917501133637,38.674712449660525,-1.4234374046706364,-1.3515263434825897,121.47882187189362,176.74370529566846,220.12821318240873,50.04296949290378,30.978006604592935,-27.258108585391682,538.3445111059531,716.0396347346842
0.964,-2.0211537633159207,-8.106927782788063,19.422198977880655,73.7235649815909,107.95068172250407,104.98628620486218,23.34031117403076,10.4769427815271,-21.2407590258111,118.12512756306725,484.67471698821794,562.9718369983107,143.89045860319555,15.203657222299285,-87.19750556662581,213.6037960256362
0.968,-0.7977158037758372,-7.997956642618956,7.554677955037921,52.67902165573795,111.05621958868132,145.30914913720915,105.91732222066616,52.79043790515429,-25.804626921962125,-2.2535565293299413,127.25405946360779,211.95509524712833,217.38603469196283,230.00736466298818,154.9880386884919,100.22844093795035
0.972,0.00546213219904601,-8.150375806176552,-3.3209917290227935,21.936078569013986,82.52937423098346,146.41520144890438,178.1398143186397,143.44475633830274,166.86806621130532,-9.93509093762485,-19.020123120980855,-13.262902938611944,85.67573509797742,267.61100770288243,345.8217945211479,293.604926825162
0.976,1.7866664911714913,-6.507107241368331,-8.310619895523807,-5.961979474654193,34.797572734673594,92.39223458185657,294.1153950353512,213.62765418458636,457.66935422339185,171.36653440115873,99.54744472956506,69.03407064989982,0.11573720782536157,-119.81363612596647,76.14450498904743,114.10752882121002
0.98,3.268540710613043,-0.9152776575657562,-16.64359136313442,-13.100324465922519,10.9247184341911,25.7476857437817,165.4676083377651,153.2519583955867,181.44461117452005,248.19438588600946,287.09148376573023,298.6249664994731,228.16556704066718,126.73323723934698,57.00935662589913,-89.20289940758576
0.984,4.9327116931215285,1.9771865781715228,-1.0414278677522688,-22.73211673354153,-28.43484558672776,-27.33187199854457,-21.302393794124043,38.80729705093027,66.91912571601334,116.49957563882856,181.1252909284182,273.0546173220859,521.8731863006869,419.02260039319816,253.49240702175976,224.89295650247527
0.988,6.412264083014986,7.586129255414555,5.925650318559111,-9.463291473081433,-3.3221348086739226,-10.879267808674783,-17.61641145895426,-43.30181971650683,-24.92266188548402,-25.09716320209901,-66.16867221511487,-13.357322062044204,145.1571957438485,99.4576318223531,139.97885003571756,181.59919098763103
0.992,8.186593893731434,14.286402378546406,17.05785330780772,17.614694150649953,16.97827285663064,14.86683172990228,1.2646547274956106,5.560090107822788,-15.239991800899787,32.57782669991906,-48.02012759000476,-32.05276001643941,-103.1305546994372,23.176125642966426,-118.87803565996035,14.841215071253458
0.996,10.000000000000394,21.53500013056158,34.41845611514663,49.19440015966878,61.17403502216301,82.28374407038655,108.8796952076472,264.60249373224747,134.24329601191232,355.99104300847364,143.6932822757732,240.67233955750845,170.68545245373468,332.17458317263447,239.6772502991228,397.81943235298127
1.0,11.823047036112959,28.34188982357021,49.515423248756605,74.75094918825141,111.80241674329122,116.49317269232759,146.22677519441982,207.3905839639579,218.0010491814156,465.0425342632533,204.78487799469477,344.91681393574487,261.3654442708238,300.6860468512427,215.1561321139886,179.09608964916535
1.004,13.631992850428595,34.339434984309946,63.94551256230124,95.24873445555085,125.61646764741519,123.84720928600694,178.6206090585664,180.89524550827204,165.1693582881277,238.1658777900816,85.33871698082908,65.67756660136288,34.19430679740705,55.57075264523701,14.354055826861725,-158.81716084192897
1.008,14.986498799801799,41.1028542983177,73.7960377454187,97.6509629081097,125.85548806111038,106.9187601418771,91.94161984070078,64.62825754195184,44.174122191743855,-75.56770704730201,-36.185137887628144,-38.41069577683484,-12.693489896760667,23.709354812879482,161.14639828550855,310.31418783256436
1.012,16.856174801369114,44.21465825579186,75.98980154999137,80.97882944176476,84.3033353017623,48.66787443003214,12.976480671309012,4.542817072304572,-15.26251682427528,31.85121672673695,50.20130904217184,163.05257111416918,312.6091476709803,299.6007739311692,278.2651348244597,271.212281678837
1.016,18.57161077641468,49.191438471952736,68.08329658587814,68.07896155507187,34.685409089167415,10.99086908526752,3.961653793208285,11.595751819108713,49.51565286120115,164.40595186839346,267.9884319946775,302.6202730637178,310.7317836755957,293.55531515563325,75.90981965150013,-179.26740447662104
1.02,19.969481806651373,47.411673287617134,62.80593642649495,38.58014246619956,9.626526811851491,-12.992301026286043,15.88763342720911,92.05381855417336,229.5998650199714,298.2404335540382,251.09963162957192,107.90369645441504,-49.88019033260724,-196.45020024937548,102.44521604079713,441.0310570451036
1.024,20.976777919945416,48.590646445679376,46.88820212102155,6.265961042787659,-4.388348199647652,5.570672331479116,175.5144357828287,402.8134286716327,377.86200915787737,246.28693977843574,11.445803734389074,-59.727201396406656,126.20987774882187,445.66076155339147,818.4241682668377,529.5807983272583
1.028,21.63833704736119,44.70363140501538,31.215623224034402,-1.0914600245112425,-17.688509744530023,59.88325663030733,298.3936933621791,339.3213108167049,165.7054924612153,-51.94045164389462,5.288746300465817,276.58240384467024,597.1968978442986,677.24335937912,267.141582453601,-81.84241458322174
1.032,22.42439411222911,42.63038246771234,15.12985051007222,-7.5356092185927395,14.142097580658287,101.15499000774264,172.68345489777067,81.90137916799374,10.482478490496746,7.792970665068154,178.25659398423582,330.62057368098266,209.89548535033748,14.425402880547125,-119.35176665293972,158.55421036984762
1.036,24.054464492924026,34.63420888895989,3.300504774225832,-11.11734025287889,62.282849864987455,147.62155732803757,113.07227114627571,-4.798487346762272,3.9131591022343457,163.39195530010522,266.3774597850148,126.45632914735918,-114.13348080765377,-6.002897253577004,199.57974009182962,368.5373710419341
1.04,23.416452304929507,28.631177796427338,-11.476183405259349,3.8511004360893963,100.78495713529477,134.61448226712912,24.800104833233206,-60.921761635547966,127.23222762619282,266.56108788865834,110.32684532191327,-81.6572257945896,111.05490100311684,304.49337539256896,334.6958884491896,-18.570403028269254
1.044,23.684358781351666,22.259946549821954,-13.64433517146393,35.27262123693818,130.36816942079727,70.09472067550381,-12.324136921106259,64.47369619656921,199.79582049368219,133.43641085453677,-125.11433654228469,86.21204703011603,323.273144510839,209.7927600332244,-129.8299415770361,58.07883306042443
1.048,23.813313326343128,15.18375593379509,-14.757638601821583,65.91109720726347,98.48858634397325,9.433161180791913,4.33553461429095,188.43268533719714,190.21683301871047,-57.742940211015394,43.73649921998397,269.17749733545804,165.04604264151675,34.5749674788846,162.90125060828436,558.8300361884114
1.052,23.53790126905305,9.171917816689412,1.536493648240171,78.98250432621745,77.10109240391651,-5.127787594422784,76.30868627621355,229.4544080507172,47.82417769740155,44.30012349773913,235.78275481812358,153.1778646995379,-0.7769923520563111,165.44932857452056,230.11188796175531,122.4810507430647
1.056,22.888301406775263,3.9450679894621032,9.656088504902865,97.2121243647927,36.34185461551075,-32.880833343313896,147.30068855049262,101.42945454812852,-87.09933974414034,185.2986093466385,246.48255892095295,-3.7264446966347293,126.48819771158131,285.26038682341897,27.15303146517259,13.65304703956528
1.06,22.81181633084363,-1.6458185305980066,23.1284993759669,102.88352747443537,5.148549152525781,33.06353445503754,159.22528786208161,5.267594298147898,56.2773083503021,213.26989425892378,-11.551050104126091,46.55344537268466,318.19652292744854,9.698315692889594,77.69839337639041,519.6394256701212
1.064,21.817998977512893,-6.907089428104541,39.058949386796655,79.58242296724258,-26.317381676633957,107.53455478437544,100.76229046104083,-33.56643772945033,196.86744049090572,136.32021479325107,-43.86771523093796,211.5036684162598,108.94542939219605,-24.32119633110591,383.69008360557507,27.692679528997246
1.068,20.49834831554433,-6.891644104468025,55.85229261818064,52.14298791691123,-4.649772280917595,151.53266813300263,35.61869279157758,37.807822296393276,163.39992169630074,-34.87770109717519,146.56011680508504,268.9148162258519,-106.52041723316364,238.01122325038904,129.5056913351188,51.5761413969112
1.072,19.735118765315896,-8.946799950967048,61.45721685718397,22.538898339060136,23.569868250164802,144.8817091917253,-37.45249453336102,167.4692161906196,100.89464855384314,15.587355842216368,220.83688856804983,-51.74615366136092,166.87592973805226,210.19380035483135,-134.8190494342786,379.31577231034214
1.076,18.27549211976204,-7.195627430060586,65.76614630739675,4.4794178824339,62.552469970134794,92.3084258380339,4.957514183842818,219.9000826557855,-33.669429110011095,164.23439305769705,121.6820640310396,-26.722620460384974,349.0687508808531,-60.121095544632766,281.3930179334591,117.64056152788734
1.08,16.787448848974428,-1.7352379037072332,72.61978145826716,-14.593056678535476,111.5004946497397,24.082830411755985,64.56985607031821,122.00107300918648,-61.65041955763385,257.8328402347543,-113.33981656077898,236.0412702507548,48.623986459494006,117.6286241211244,229.6427747507629,-160.46530576994502
1.084,15.34979311355773,2.744381613131292,66.52242067613888,-5.819531144554958,116.61660005970161,-23.653077437855558,148.5309684806395,35.74245568910552,103.29580840879167,119.29340255437579,1.6953170830988427,302.61251986852477,-132.8701771558176,215.20451210800036,-64.07013176184364,616.1665337546201
1.088,13.654414030485743,7.8248674158296865,52.68577499649294,0.7073693721855392,121.21931252497129,-30.24665481718371,187.90858148639992,-67.42313226200068,181.12917459080586,14.271253699855947,186.00138230126686,-13.71048762894128,263.430947128348,163.62222608769468,364.11765705255254,339.47109918873605
1.092,11.854930163193691,14.716305623437567,42.074006027179024,16.857050327143153,75.97742836043909,15.037399037443166,122.83702459928185,-3.988918066462176,148.7500631851416,-5.325254117248932,215.93167287866368,-7.657980479124475,285.9280358065253,-29.907327246161856,825.8699957614517,-81.93129119358434
1.096,9.999999999999597,21.44450373909043,25.798488348309665,48.84174872453525,34.33224590800111,83.74117196039914,39.49707393685654,112.87950783832983,62.70316958513997,170.74692985183822,17.773297915686726,191.332613646356,40.479948195654885,588.7620390429479,72.52321752643822,394.59164627774373
1.1,8.188114132942035,28.962502609361515,11.618357957109097,75.77173260001135,-11.916300936413855,135.54221410091088,-6.480000678480451,177.71619879404022,-40.9480484278528,288.1202041706669,-91.09744363263107,610.3362220893889,17.739612202967407,263.1503234608957,-41.20618318653098,180.82116066356804
1.104,6.316780082909042,35.072378169392124,0.8011218874713819,88.0856125075895,-3.2784969040745864,139.28606718049377,-37.40156036048505,139.10882318025588,56.38428804377023,118.35183294408061,126.79783101248188,89.18083598522676,516.8456045959495,1.1633916520980563,491.613953095709,-217.39389559163908
1.108,4.623437746260547,40.538439467923546,-4.625988782724235,103.4872847021562,-14.623267263171826,110.23568146129168,51.7031760274089,47.18353711647621,170.96861026064101,-27.352109125963153,588.9222021857005,-168.24430690876346,200.73921114991094,45.96967030444631,134.79209701196723,297.7346777661568
1.112,2.969275168855029,43.186979100828296,-12.828009966004643,90.81137776228914,25.118225950842504,48.02665359708365,117.81794622555401,-54.486321542462036,181.65440857934192,-2.2960616826900377,307.02806906225777,142.32633458245988,-94.6019607023016,452.18879580722387,4.014035396652162,196.28235760551547
1.116,1.3385136554276578,48.344114735046,-10.049931894389253,61.438312641899266,62.13302940985953,-0.2916845082000421,179.1455044840954,10.321214068235761,119.97223019467543,190.33834809111016,-60.28505324799184,330.47460841257936,25.517557515680082,137.65763347456635,230.6655317331816,-94.71816198450239
1.12,0.7371881752478391,48.284660135571436,2.249819168599359,38.45560765474743,90.6202411725474,-20.309920060977475,124.99874845561254,92.80559412067616,-31.589790915644926,459.87118629183885,-9.029857455725391,97.78348923970091,271.17385568855684,-93.4140756803389,219.8193975774338,225.82145046587362
1.124,-0.5450707256994889,48.80104878655965,13.248403566109637,7.418311320940866,129.93537151510856,-8.76864876567386,54.96306747704445,162.3246033174315,13.620324775270873,260.7409422408838,262.2672378226489,-114.70732827009445,274.12589480414067,184.62458992071984,66.81761025963569,392.86714283464704
1.128,-2.316754831240088,43.89986309542816,28.880585374428723,-9.442493608908755,98.13159592641973,59.906143810284455,-29.96586433294229,165.14402531293126,191.29734032046323,-85.26152682660302,201.24787735438576,130.43747040816825,-11.51385218262672,341.58210930718917,156.39142539715507,-138.33795131177834
1.132,-2.6728925329394766,42.629391012113494,44.39749193646452,-7.0000609444439235,80.94251240142223,126.14884813570198,-2.6875960319995897,82.04378599908695,420.2609057882497,-46.27993563322735,31.880243398248012,341.92384439072794,90.89489226909774,-74.37594440883444,389.7609159222909,159.8167622570318
1.136,-3.1794541061921233,34.47256565498498,60.24495891261212,-8.297072875316992,38.04699952377679,149.83127467383207,40.1721159028932,8.789949975851783,350.202341573049,191.36333684310094,-20.127167491825844,125.92731746432224,363.1832254281446,-23.832843612292834,-31.870352769100776,444.5463382501325
1.14,-4.342595664410441,28.610326428034398,70.155006077799,3.180272746266944,-1.3217549792740328,118.60616211186394,138.74135379956223,-24.95063037431352,50.289944725764485,241.87790521233717,109.40270309858136,-11.962586660754596,152.8683385451203,439.450362974305,-39.89389635392007,-25.56198000612261
1.144,-4.549144813940684,22.330175952834296,67.04709630682453,34.76298718327838,-14.605929282786036,70.79552542106983,178.31076259558523,142.3850225824733,-70.36608254499268,118.18656834665958,277.8957540381583,106.22143173937614,-54.44952467081339,195.6854433504387,446.62508248672845,151.14483789690223
1.148,-4.765515884008298,15.38620543275323,69.67982015814135,65.98752494359806,-19.763227659148313,-4.438656957827348,134.0754553849678,316.1036819824036,47.87194775925366,4.2847279721056,141.6665792258059,228.89113078624067,105.7102273878345,4.425405209880722,277.81293487751253,882.0925059700261
1.152,-4.4539227449268495,8.390894154012907,61.44534367580765,90.1535356981286,27.557302256564963,-37.092742140097755,63.58173771753384,335.5781810406279,128.1892509471532,-1.027037347237993,-31.51791838644411,158.97398892371334,346.93659074607405,180.09494811700262,-176.10887157076843,-50.51051232785164
1.156,-3.0007119497538266,3.529212078586024,48.67978041398671,88.88350936992427,64.49926495420327,-28.539074983245257,-22.169768826070225,102.82100122557176,203.48854099470947,183.82005210691193,53.557451874070594,-118.86618710983703,134.69872758018695,640.0005911302552,529.2874202571365,62.07343399350965
1.16,-2.542494507742445,-3.274915869400054,36.061803750178235,100.92545602024458,93.23205809046434,37.599138466691855,-15.874289050377115,34.362303509915975,134.4637140784492,180.71150150650104,220.15786163146333,18.193448852926807,-89.09794270607426,54.55881700954123,206.83352684312905,273.3996292540386
1.164,-1.627790127913526,-8.031007498097193,20.907428427931077,75.33338280186021,112.79193895305207,91.16695451409771,58.65431712008683,-75.45378236733447,25.561035646805692,131.36237040350798,229.09113783627447,296.19595488549317,152.66362344352277,-105.83306923824819,-86.68720652173445,58.24413143121903
1.168,-0.70361845955631,-6.167639683248051,2.908656905970428,53.11958064859617,106.64679204963326,124.73089855165689,229.10701786662872,41.97151641248409,-48.261767934509066,-56.808896279123616,79.15182004871482,218.50478810935613,350.69225572026187,268.50599414413955,155.44044462899328,-95.1755599661696
1.172,0.7032689157249585,-5.808010153540518,-4.998379043249855,27.271370037427896,75.54726383124664,115.13208453784765,156.8012282723093,139.50070942175083,72.46675936242674,34.89512216020162,13.052348894984917,23.68425078577377,150.62665391517598,266.1182475483231,275.734806137714,545.9288059169714
1.176,1.8774538215694658,-7.35586597688021,-9.898919384277583,1.8268787050961848,37.34501219008885,92.02164286003939,126.38928982473708,205.1097592357467,200.09619541733014,154.25816094299392,79.78695824962243,64.31713911603177,-111.68556151272458,-51.667936929685254,40.404925973620934,152.58332320840643
1.18,3.1912689297330674,-5.3466212070299335,-9.923224248238185,-14.880467940398304,8.720056861609649,32.997825732575365,77.48795975446595,157.87435026220567,168.0197957280247,259.17272915636363,184.1987817470187,451.17407371742763,388.2147293315471,122.94193539961,9.916956114977893,44.05086840503181
1.184,4.625942485795765,1.5829458125079938,-4.913845816032669,-8.140711061543854,-14.187277257226029,-35.659085962758866,-17.268340467756104,34.00340001572418,63.16474887120582,121.36668162896842,210.47036871303814,430.60033826731893,400.4588634733338,261.7927021920691,481.4340068449088,487.0035893707062
1.188,6.499001472304409,6.575306511519411,3.248070947778462,1.0751431167972783,-17.27832008808312,-19.82918763697289,-27.9867194471677,8.074829102072584,-51.48725361706022,23.76341970575237,0.04812179303513631,55.80732836152629,38.262928724632985,65.25895884022539,137.95029764224734,211.44443039457838
1.192,8.284297494769994,14.77894176305918,16.898978062173143,21.50262333944434,13.738417507027805,31.302497809396186,8.945462728007776,37.19471168780279,-30.878046791694445,9.680231034664388,6.66530370652724,-40.949312396867725,-54.93819440716831,2.0900605793455895,-53.19187035373969,97.32891400988535
1.196,10.000000000000464,21.291236897918996,34.48425576545767,48.7808073187241,63.359269328228805,82.4025714932751,107.10904073497467,104.02089747952202,143.9487372760014,140.82438853589142,417.0058824563135,192.6546810487518,287.5808091115888,342.71618819843593,214.56764899609254,412.51189075136995
1.2,11.752103262768928,28.811004335114323,50.97945061672688,70.99917915909842,105.7812539162822,144.68463433349913,132.14839714019905,191.5316358957417,218.66939225360116,252.61227320891135,457.93482271815185,294.4504072158591,291.1074335231117,300.13826559056537,218.60379696972436,558.3086785218177
1.204,13.681679569209269,35.68041313435321,60.45243152828991,95.86764032229391,129.05520993653207,161.46884545953344,147.09095358657515,179.0907434968684,124.53187770717707,130.64632981834316,183.83670287281143,86.06235913759667,72.68287254147026,-144.42811632323543,-191.96402467345501,-301.2644999201805
1.208,15.253025770999853,42.18608368604285,65.6529147966022,104.62853002152984,123.79993488832446,123.20704405843686,95.21171777928788,51.38574916494842,9.542109771886686,-78.96929922569294,35.01263742138954,-128.27795915087478,-8.662127147764835,60.79403678559997,168.562066269862,570.3680092665147
1.212,16.928284404721595,42.27785665949595,66.59993360486006,94.5632018589977,72.95921098125947,49.07030816872938,2.730791315644268,-26.820413283570716,-27.94186358025877,-31.081471742948338,72.7562120463775,150.71206275207908,202.07376954050181,256.71559202914693,598.8174433681513,222.28500806083431
1.216,18.272786309659544,47.606849258019,63.6281200467008,70.74570776942815,39.437914210471824,-21.85132737189906,4.131384106518382,-17.13473542098751,59.7305458477103,156.50258580755835,220.46335757683812,242.89253060297114,181.524888324527,138.303746898137,-4.870340565401818,97.27010087465325
1.22,19.89519568314565,48.33965854369938,59.14671892879841,38.82649753395243,1.6951340945404638,-2.7996058893534936,24.926666449892394,94.40248394855341,189.91517175797566,538.2237746745334,243.4353640936795,82.03164738560531,53.34475638182862,-154.65391215148117,10.241675244044472,245.78606852646567
1.224,21.204441875868277,48.71429402358356,45.67801127156642,11.613477629279,-5.198792736560854,-1.3284962409996766,90.42754418806781,155.44639956472741,182.5109011509958,246.29214348953278,-11.084369496631851,-126.65255429353766,59.459570070916996,480.02717810652086,442.55162940603617,299.59539708355203
1.228,22.314837440834403,44.70976635763094,31.022105997423537,-0.4245969855824754,-19.636047849135537,59.86540493459665,184.14794038938086,157.46507414343034,86.15805172020275,0.7333856580865188,8.866172285130958,132.47067727872394,288.09764978697706,714.9874383605043,135.27049349795783,-11.576355236215392
1.232,22.769228446323595,39.4825669184297,16.031152836780578,-23.28518798316263,21.139243117434024,117.87238412066608,172.8322830124926,84.1867842714864,5.8284827970952335,-13.981195266061192,191.43850421639422,328.12918061181153,235.98311660290284,59.222289420738605,47.818285281903755,158.79562879972883
1.236,23.900020369569347,36.52528185318289,-0.7934796560188815,-5.903000454726886,66.09607641334925,152.5873276601206,99.2171360253204,-8.601022837915806,-19.009395790942477,158.5069935090939,276.266851871618,129.76089095730387,-146.17229663817443,4.372302296703452,212.66006490845652,298.5489833753485
1.24,24.10221534842823,29.42679757618098,-3.59831705496763,9.340488401674705,101.36641245601047,117.97438573252141,8.08757525694596,6.530534442794533,230.56121406229616,171.24102342212996,110.24469008129176,29.10882032066685,103.8550844520843,439.43816298473,263.0436518244967,4.331701448060329
1.244,24.032599810558935,22.153287447444068,-8.542746261475543,34.14896863412412,135.47864340360235,72.840166254736,-53.42375296426762,68.39379078272302,409.57183389090824,128.19972748588592,-1.0905508686419552,94.95768758201868,316.28703108940465,181.87597266328027,90.87788659301887,93.99450535609024
1.248,23.473625188797904,14.797702662073814,-14.661719817866043,60.7413477368016,111.14898051807799,14.511303221696338,-17.359477915570054,190.5223594876962,142.29647942103733,-58.9537869498526,29.578107129217187,197.71672368277174,314.80872065563295,-51.42547417601995,153.80334304082865,299.9591910765329
1.252,24.56727751368279,8.844875736130708,-4.135756611699016,81.81698296249057,73.01977013051237,-2.2891961313094527,74.05128917262577,177.05366262291062,6.065725489017211,-5.2576942718062725,237.84639828951998,169.5488196022742,-209.50295063764779,176.14053842344117,293.57368355438774,116.76548330878938
1.256,22.9829846154112,2.9136237424501203,8.673640439864787,98.4553502983446,38.97515002275304,4.184957694185471,138.11708633654519,103.37368482454585,-51.598975990134704,150.65279340759167,203.84194261096758,-0.1147232983379638,247.1948759174121,358.9403418916224,82.11986504572525,46.654419358136124
1.26,22.511654590337486,-2.9728592571290555,24.356501958353192,94.63418491880084,7.610046604852549,41.61674629906644,170.5032944207768,-4.417230491938994,55.810005909024326,183.66714077798576,36.0462932975136,89.99026872031618,300.3556674257619,-15.119154836930704,31.443128354362187,751.0359979150262
1.264,21.81869811825097,-6.862172440327509,40.50658412598546,76.20037707174788,-10.576826881235128,109.78318816354576,105.18861314709036,12.51501698077378,194.2618714875478,131.14330094202955,-52.121697573624346,492.40406513438313,119.75506662264506,-17.839122237638918,217.49099377287996,124.74637340708384
1.268,20.84771729049317,-7.294332000693981,56.38372700512417,54.72877502085289,-14.010110609305713,155.35294729469038,21.30751428546119,74.64522068597988,215.42369434601324,17.106457030502952,160.5080948108103,499.6435651572874,21.79083046717591,313.44760632918997,130.3773537872779,72.01530225983913
1.272,19.774202002933368,-9.113281172991428,62.550030698386315,26.326655535993822,14.281641492782775,122.15510568254294,-35.49746949287022,280.5104352949222,101.04046463506594,-40.97275187055203,237.83419362972057,-45.86153661004741,165.7493692425429,267.8814530445739,-171.99098463413765,228.69771846673413
1.276,18.5898284106024,-7.36786487426313,74.12166587933268,0.48695218597826084,62.67277683694317,98.54610845697765,-15.754525806097107,372.2416646025491,-63.60615205745606,156.47096217974251,121.72437533153425,56.47486027783559,327.93752796359126,-123.68636700490947,560.0376833228917,136.36593595825988
1.28,17.058754677311374,-1.3222312514102441,67.64691741184802,-24.78325291464175,95.75402688810055,31.397820832324427,59.74920531603762,126.81814727345706,-14.251101096740214,239.84598189333587,-74.8718911279214,296.5342243538987,73.32816964019447,128.03199185524727,609.3136133983087,-166.96504951157198
1.284,15.152635865110003,0.03812888145360205,65.89264371397581,-5.822439577778319,128.2328481719362,-27.81180577975705,118.94002011792256,27.088617055121077,103.02366577249819,120.59871886005692,64.34223896967947,319.5675692541321,-70.37320024411463,448.1186191574981,-23.50717128907411,450.4821562289792
1.288,13.439037234371007,7.00638455681122,55.12720356107062,-9.244786455346087,118.88246185702643,-6.560911836700612,171.1841987727259,-57.68359719367072,220.92957813424857,-4.454251994836639,390.06528583786877,18.147566920371062,215.3809957376933,64.584739203604,160.12739757807327,199.33896275005586
1.292,11.832177116282395,14.74543907177065,39.93636146950897,24.07838584439309,79.6797257351146,22.778434022724653,117.96730722508286,0.4541035910220472,142.17552059892205,40.83632001899452,390.5395390563564,-3.469297775382799,386.7073622162641,-123.43214467080657,486.2641098969493,97.90800721036076
1.296,9.999999999999531,21.478625704297077,26.38610260170037,48.49557955960897,35.65185520687197,81.55195137985602,36.21236458042203,107.59750310257594,53.438188367716776,140.29521929086212,-5.029921982309375,209.07681268473735,-16.443487702891417,570.1814503378909,-59.648785372714315,316.2169115895505
1.3,8.189292626324608,28.984009886106318,10.542248965707177,81.06627612912872,5.8548692915465494,133.7346306952676,-35.97470534721725,230.252277514569,-39.07430423974151,224.98569597437705,-13.683059726096062,255.7612661075678,-46.0615546306737,535.8621291493844,96.09546682066508,285.9587238688619
1.304,6.560199358853469,34.84061337701287,2.495265377336075,89.48198576550311,-11.846611528963471,141.1820109909233,-48.552096646840525,131.33827734910454,46.116242992916156,124.26301783006225,136.3562211191967,81.34288612234619,225.56919194446056,-77.45951674378605,374.78467477493575,-124.07176075446029
1.308,5.011749849042958,42.39680023509072,-4.100115219243563,85.65567762622368,-3.0613441215947077,101.8424910262576,111.21542965055193,47.07799529185028,148.47292371656715,-13.288768021284966,268.5557820345844,-13.188328357954958,220.7640143044665,29.9936819985667,145.62617865682378,268.5295385908681
1.312,3.28643832597421,45.407884676975684,-7.410267150459198,77.84153020111465,21.431607471585824,49.5129768784815,114.0284221145594,-46.49341032088596,267.27095531248165,-39.88329456562943,165.7660168375056,187.85758256188024,24.16099762636408,227.92707374861783,-148.8430537232258,299.1869660877567
1.316,1.9390919377363325,44.6088365118451,-6.029124433485819,61.353030799686074,64.43361160787056,11.078947616653892,189.11137365215382,18.6342029160675,107.5106336443423,154.80398442219007,-47.895255131922085,192.3040709578218,44.273783294498514,138.0397805412525,272.4195270160151,69.53755560834436
1.32,0.6481751520254466,49.2991308986921,0.7938754219322917,38.80396345729225,99.71195241388688,-3.473327757964789,119.8574425817601,94.35845442064742,25.256504327804436,461.48205611971963,-28.38623157523807,75.57999825759829,203.70789142335408,-5.521926835197547,270.6678495352638,434.11112681826876
1.324,-0.9956204692372417,45.32073754727804,15.233845767876824,12.583146116290852,121.85221922916435,14.009667564911119,53.49176985634787,142.60911581652277,22.40219992365884,226.63131641827135,182.8592140798858,-71.93497148652074,419.519219092933,199.60027428489394,-151.11359013380837,754.5049379673969
1.328,-2.5123634220013518,43.23390569937341,28.817755131533588,0.06107637686516654,99.7396040039342,59.9103607715678,-27.00096741448087,144.52431977241287,93.02030459206424,-19.50533312551744,263.567437046288,128.96201974803932,-136.57038677906473,358.9782550040372,171.55275870046944,-90.30449777217757
1.332,-2.3562844741917477,42.51096176434133,44.64964826888544,-10.794955388714385,80.38432719541967,123.0292865131991,3.4490469619107103,83.17386322700577,231.75248584503322,45.33623991893078,36.67860874540112,293.6547054914228,167.04667563640606,-28.094787831516385,369.3612191999243,158.83425169865708
1.336,-3.7704027892101557,35.01279007707302,60.34924573899508,-10.412529335659869,33.60160667152954,138.41061997949197,32.14993967276982,-16.655741017943683,186.26250710005115,180.1973494040347,-53.40781469472756,128.09816639592563,317.7007022067241,17.57225360959535,39.758370147137555,338.86206906485154
1.34,-4.317298470062214,28.47234932479376,66.19869884700091,3.0438091450916787,-1.0895288824139655,108.30248537838959,134.05011365142894,9.944800042237546,70.39050260373801,216.37990363323803,109.64766000483627,-11.036473626269355,178.8025851600184,381.3688497467762,28.27439681925,92.77359849107879
1.344,-4.500538774867975,22.058874985624854,68.72857116300894,34.329001319255994,-9.034167175127862,67.6704731973385,178.80184658665846,59.65870455894368,-56.02593569666129,131.4666928591241,304.6736661949364,204.7063666293629,-147.36853729643877,181.90696342485745,664.8044984382784,125.45618349446437
1.348,-3.4588922401152082,15.138079311800851,68.66642444751429,65.37605915094521,1.1098205205859344,1.2668868407711074,139.19190382856135,162.97667422025876,33.363729018430064,7.036772355939561,167.8800381867112,585.9283570771736,102.95867521418702,-8.612083743424847,238.64720536527028,278.5948142307282
1.352,-3.9875224668973335,7.210988195501123,59.74223581845604,78.47026643644503,24.350934548204997,-17.703899819182595,66.1533486687679,202.28835962250943,308.3022412536634,-16.149032501431805,-91.57454023750319,172.1047262329053,219.29360306650906,177.87828698362992,84.545064250745,58.290118992346834
1.356,-2.8854083329696287,2.211086002067997,50.024875466951286,89.95851286345146,65.47956883531502,4.559342814625495,0.5235200683835046,99.44500286975793,262.31659901057515,172.26874008685502,-17.443238271928507,-119.63149084046185,133.86682004000815,248.45878824156432,278.0845658341034,59.11059995572151
1.36,-2.987559085147371,-0.5821392750733168,37.08945655735733,100.54769436710784,98.7445415018316,36.33482428875237,6.203237652868019,4.318189367993895,117.44899929862626,276.8712983179786,233.66313639299074,44.79662764833003,39.23334036207474,48.732391432475595,263.42408136846956,525.8984069965558
1.364,-2.080749019825781,-3.5858072521612954,21.433732964438832,77.14042798529552,119.233026373305,89.85363317898265,15.399868104638152,-55.40836188218731,-11.106166833399755,116.96098827381108,180.85884944457672,266.2351926000931,149.96642842277166,67.09527040281961,-78.61966590371645,41.7291100731248
1.368,-1.4258608875651042,-6.993620210004437,6.337678704919298,53.790217920610004,96.44245274337239,128.26207572192675,119.6885212463704,45.91161023116319,-2.191474091926466,-78.54550669206571,64.74084431825189,187.90041343405585,382.09096583057703,639.5169579613557,160.00347270891555,-33.41264547422165
1.372,0.3309537923823296,-10.76664836073881,-1.79322545050994,25.731835811887898,76.99672655700944,133.2091543348907,174.14642284272026,119.50951067353634,72.34129198369232,-31.04112774968152,-74.3784274593904,-95.61020673562555,111.94040791002334,260.421448460318,448.01560819438123,489.8835596072565
1.376,1.4318722055389408,-5.305937819611849,-10.095667765315923,2.4469300819044477,35.09649227946494,91.61498583504631,172.46950999803295,188.98483837428455,214.15997348385355,150.1729667419735,161.40556874773043,-5.373402882488577,-66.29999831927017,34.94069313209363,93.05090621663962,152.56255953226946
1.38,3.4103695924270605,-3.739413661204189,-15.820283381169943,-24.773058154510835,2.6881374592783445,26.888492557387274,76.29581266314425,121.88614773471987,191.85107017172294,270.7520534060559,510.28093113415025,304.5665420703693,199.73733875141943,126.48865450996162,111.17731246142678,-27.756971764361708
1.384,4.750559548531506,0.9590884536400957,-5.043215149769601,-10.756915755024558,-7.451117710817087,5.233480374158063,-10.820797771600468,12.265644401304485,63.34193752105688,126.10719237764818,184.33075489602038,250.02816412376566,341.90315801111115,312.33578351924206,485.7380318820811,779.372927519401
1.388,6.647957146227119,7.236485327297515,3.4531071957842805,-11.158568994715928,-3.2643498628052328,-39.243941390597286,-38.48686037222468,-43.5435934112089,2.5781406272395486,14.032969863543798,-21.594320727531993,9.094823691268743,16.894116158432354,121.67050791497606,126.88072858007625,347.12010744032403
1.392,8.23652882058326,14.400122767096573,17.83385032871958,21.440475309224187,22.130131870107814,12.845791291248496,1.5663444949711334,6.580800617552569,25.43845316153913,-51.0139254059377,30.9430502793452,-64.39704291229913,-87.0405747238984,-144.29069806006999,-168.23724328239945,-22.956309434735857
1.396,10.000000000000545,21.49330959884952,34.01782127285783,47.63495132199596,64.51390564574717,85.53100011018708,108.37777266936556,232.9793011120828,148.97760730402376,135.77558606805368,152.6162684868219,229.3976416880629,214.6334116338042,324.0073674201501,190.60270802995493,278.33431351169355
1.4,11.810373873936289,28.491699568252493,46.82353265931232,78.4640952855496,113.43660857052274,149.89524229994265,191.23821607092188,376.4875253751202,172.26513230438167,305.19591070812,218.5556693048781,246.4063289686357,673.7546666658743,211.76393067895816,200.33582081211932,179.3903915377749
1.404,13.657957859209786,34.84474653074798,61.289680940363596,86.65619390670102,103.70379147968063,158.4508527580121,136.50310125954525,164.20994006285835,125.79428702440269,131.71379845781155,90.34472449577109,86.17016521976105,22.443306239083427,-2.7538617603321995,-97.85475755419566,-55.13548371775423
1.408,15.264211755083295,41.903906374673205,66.90811538600124,96.0179900230103,100.86769178435341,119.96540041616757,89.49743379721559,64.18017555769404,22.034284065789635,-52.54999993525311,-3.8074717265169795,-20.46502863182016,-11.782221284781969,93.96684096810412,304.0445225087162,184.7486023609438
1.412,17.097753559644325,45.73274002388203,78.11355539922951,91.62659827674261,76.38923175900383,52.149500785248634,24.384224285309458,-18.557009864272146,-53.43255032514804,34.353811824437884,65.06138107131646,197.87545574339237,350.75083966577677,204.37761468411375,762.3419532989814,237.18753043585292
1.416,18.343663687013454,49.81539589247865,73.53565722015344,70.37927733785192,36.232763977199454,-24.280929081719492,-45.707148776449955,-4.61607157440956,70.37375541397759,190.29350289581043,322.48084301092354,224.9622631910596,212.8888701172805,136.05201939888113,-36.67476391977493,54.03322503019973
1.42,19.736613837969397,49.61640488833339,63.604500477655904,38.478536759511904,-7.456646970907009,-2.063497297224039,19.39584228597628,95.33208467327216,160.44163819391002,451.9972668603722,203.5209196127391,183.63144299258596,22.536694524473646,-32.45607063709309,71.82019079653439,190.52738146931836
1.424,20.491088201740936,45.279350291396696,48.88984099052024,9.331072253366504,-11.585701910061204,2.3440772570700474,87.81834083534227,173.87099574523174,230.75506843631462,260.74069506661465,-44.44622526208579,-60.937101805889085,-12.214549108003467,266.8648158971057,369.0960833187088,366.06305321400674
1.428,22.43476571786549,43.04201188788308,31.080356498208733,-16.618708147105757,-17.37649494861914,59.87545109910849,154.4453715683683,144.0614978021216,86.1402098572198,-30.823522179836914,4.442970456854042,269.70188467804695,345.4166721521226,552.7528635794272,143.95912670177978,-125.19642508804105
1.432,22.817808737783746,39.9141733639439,14.373082669175622,-16.56168176057941,25.559205469262384,104.79504382221253,155.89703941521725,83.81670657229566,-48.22901339202326,-29.5710734543363,144.5002806472944,315.71288354948007,161.52148462480156,-78.9808826263897,-9.257605587834973,158.76312275219712
1.436,23.516526512880937,33.95565139201091,-0.12689273709409576,-6.832550915385191,62.20586811640079,140.13462241327,108.97037784007513,-7.09484354573334,-38.335722760938836,160.45627449994714,220.7272651705976,125.92605242553716,-113.19030751039017,11.695892955511681,259.0938770989249,206.5815420934429
1.44,24.11054007551516,28.78034365882635,-7.331995969428803,2.9614430362671555,106.56641195190817,111.24551294299533,52.76394778523702,-25.30042277148678,126.91011536588805,296.6213488474207,110.4299045659278,3.6461263918385924,105.35313841448186,198.77547807430528,218.1482074498462,-38.74050026763581
1.444,24.681492913718554,22.070653786671535,-9.127199658425319,33.67260343007239,105.77838204055136,68.43285238013,-75.78651426394768,64.32866783941591,170.21374843263573,128.990177976941,32.663220455462195,68.96899423557025,415.36492283991674,202.74382336692008,6.038906798050959,161.6919380173431
1.448,23.921938000884964,15.300696379936475,-13.316028163569968,61.57198239567744,121.0189626702053,3.28099765725068,16.919272613232124,133.5555035761054,171.89020654138034,-73.99299175272895,52.75272743707994,247.73768251370745,156.12993717039532,-4.691846070757123,167.60406542273154,888.5007403642601
1.452,24.341302742081183,8.3170163018145,0.7316924549652022,91.97244087039894,72.15470829953992,-42.85734636110854,74.80624908261579,147.7983092265119,38.472233634664406,-40.13294724042237,259.10908730411336,165.07596252927777,36.0020336334501,185.0090051782327,311.5065842622555,45.729198028192116
1.456,23.182918342601194,3.592429718736348,8.712616974944137,87.82633234897,32.68031283550104,-23.93410758703368,122.05394217497656,117.87550664216666,-25.53820605949346,185.5579285309896,171.843527020076,-39.33518795220479,125.5574433254879,355.27694005573437,-61.49819171600191,122.88982069896849
1.46,22.911969496602563,-4.701228653430665,24.45898019106768,92.58028151349154,-12.873616908134167,43.94165135728076,172.54302233677407,31.144286649337403,116.91604487613125,243.90046128305497,11.804203501869978,75.15175729686788,215.51084314106834,56.31758718125974,39.552543586707046,238.15660722161556
1.464,22.398606980308138,-6.9364870326601,39.22697050794686,72.52998147999088,-18.584892530134525,101.62486523456371,101.36533574387326,-16.459610542711403,208.73677721631805,136.48525177668603,-68.09719319831538,264.90458591971606,122.14198255955486,-85.99603944107977,483.8438838843224,24.261179689340395
1.468,21.0849682853841,-8.419865180463116,53.84885337629869,54.801462452487115,2.7448776109896755,135.61930558836843,19.804238358314997,37.05153707002037,185.08953085492786,-8.491710975616442,266.61389543784514,252.27376946578372,-148.66525332542676,332.02656273964897,259.9755593150643,76.90844864088125
1.472,19.461851813215556,-5.755801066436213,67.4788797197182,27.126086074739728,15.431392850094788,133.56688575796755,-7.217162282633765,126.53116854697151,106.46215049864088,29.474572697072134,286.1479771973643,-8.558328219804622,185.46723232498437,170.64652646321125,-182.59138633562304,231.4558934377327
1.476,18.13375912438537,-4.416934720890755,74.08968833441159,-1.2142695282162705,64.87020185027738,90.33368165419074,13.443606277927465,235.8902809396301,24.523480896438414,156.20009267011062,140.52183305004576,26.51922778570865,756.2293824975554,-87.82246752035871,659.6982567800773,125.96229930194357
1.48,16.660700956961865,-3.109948338955487,77.96290632580875,-22.660797269074074,113.86948316927266,35.37118359383827,61.32406499204107,146.841379053005,-61.411270515102444,191.3378399425735,-55.63253806640995,287.1817911930457,96.19665631451369,115.75746822174719,187.1191095246696,-70.54216095720835
1.484,15.020613523200623,2.0385979399913055,62.18106810234213,-10.123131189881477,125.19006214976122,-7.42267183098906,151.23938410020378,21.18201205756081,102.15706302958387,136.32987509253906,51.383071971605624,245.0404506101019,-37.0248192724211,370.78837666937727,-197.22996313815776,232.46820864010448
1.488,13.34994873196508,8.490482215148484,52.564314148757674,-4.038756122518151,113.78237594003971,-7.519830302653915,143.4484530980019,-52.210654722600566,253.68987661445541,15.96958356840797,206.495602925181,-40.96503134992912,194.52979033617558,87.91772066051433,158.28434798252903,166.0339627025935
1.492,11.684229181963868,13.969123015652006,40.227302198070106,22.24548018657077,82.1814533376797,13.020766960326533,125.8908454078286,-1.8478677616429167,201.98987737171268,48.90525361793753,265.0106429501832,2.253142668130053,355.8032808043815,30.399737893102184,233.16253263189182,-5.056364891874381
1.496,9.999999999999451,21.50387405247685,25.42725358855194,48.47903878852533,35.682250035621,76.59228508852273,37.85523681277899,116.44034790538393,39.97425231290954,138.17209904122268,53.42361150855305,253.6694886251867,-5.1461412806337705,565.268252430342,103.23050369531686,218.14680459378604
1.5,8.285210289408996,28.386618610932167,12.707180143437938,69.30952609008483,9.531427330942819,112.81089289008011,-18.719831536996935,177.64403261870325,-0.6097459465755293,306.1361456349623,-69.63596285438729,621.6263173763606,20.69883114764086,645.0418275646648,80.36911887210415,581.3247523211531
1.504,6.48422546276705,34.06891069457835,-0.4369640291772541,93.26938682401985,-33.516839255527316,158.130175418518,-8.402015179098541,157.58911620462354,54.69018049809315,113.11887811252288,125.94213144913915,68.25024600354675,294.174324449471,-127.7431251018291,494.8849057134068,-55.78634626079992
1.508,4.627180773819097,39.26824156936041,-8.429442274242149,105.39169881547379,-15.739741775749124,96.03766750665821,47.124040460844476,60.02330292835863,191.3627694326626,32.48695846510533,305.0234229007151,-146.2695611999543,278.34220855042724,86.22234399054716,125.39747235118739,581.5353856387046
1.512,3.339213538419248,44.44958233602202,-12.044045774739146,81.73917475972443,17.318251355431926,52.55450556493557,112.13518900691267,-9.993148103879506,244.83335353690438,48.914427074507714,128.17207599879708,187.76864350236247,76.99516721976107,448.4690451267729,45.01949547441818,249.4662692708321
1.516,1.8090235774768928,44.88794399571848,-6.623587546931319,68.50061762508604,65.79308658383594,-1.2335464130627116,147.81060199634788,-30.098962728112383,130.1048052920074,177.3208239696132,-71.51994985962966,286.79239804401027,44.46952402608764,133.43936131046314,367.80098941479196,-181.84856462360602
1.52,-0.10084986998627166,51.04190287678256,-3.4152955610358333,38.58035289806836,91.79310948858648,-32.98003195150315,122.02281846835967,195.7829060470147,16.502585521479446,427.079308234475,15.856094095174015,95.60226543341591,283.00631642118117,-53.924810573954176,233.54866380209543,228.81011951209092
1.524,-0.8171310184678386,46.56643778844739,14.826616160172161,8.926852771919226,127.03147422387029,5.427829029430988,54.51023982757545,375.50766279760177,-61.44346109355271,273.64264663279414,251.38457386210422,51.094299591979635,273.16678679842175,163.52975152931305,-54.69879519758675,390.6480259588583
1.528,-2.21444501708903,46.27079371975467,28.96885598611955,-16.157141354759183,100.39473415723876,59.91141003436541,-15.03287767985779,213.3017855770091,93.44052524905005,-7.044565091251201,217.70164113431946,132.134525667286,-0.4629511379298492,260.1853469063982,172.68602805638972,-25.675705882524653
1.532,-3.402221816840715,42.59377942858904,45.944588176228166,-12.493482397007242,74.4790413981606,129.57697935533199,-1.7279049381507008,83.61809535616186,245.9330594599565,-8.501127323532572,79.02683036154673,362.127616870004,24.2650212381304,16.15341473018367,778.639887904255,158.9545130243378
1.536,-3.094318690141197,34.01063349587814,55.13277383676621,-5.751400183427791,38.43418540434271,156.82190773399634,31.996932584516053,18.959095970484455,189.53012450220086,147.58111421024415,-35.76260247917975,127.9705477128936,348.7086956168114,-25.96975015261728,-41.7931100248511,367.0147949855842
1.54,-3.948539018031825,29.002518774241622,63.74503661094418,10.392068366100695,1.1218521050894665,110.62960499669447,124.76916321933729,-16.9313574146546,57.62634100267003,206.13920379825413,109.50953557368098,-29.829326048149483,198.38872016668222,197.96722222468455,38.234965261573166,-26.039391715137157
1.544,-3.6841171948643545,21.96779748215516,73.87270305880386,35.166682478447356,-16.911690759880514,72.26159890575356,152.5511035095979,58.9432972436003,-39.23981711348645,115.22151726088316,274.16982268500846,82.66326831572496,54.9765384569975,214.04579599828122,387.08513670677473,124.64003093100862
1.548,-4.30315138297823,15.486448447292977,73.25830577175347,62.57925680849779,-12.766479421167809,23.356274699554554,137.78746440838043,188.7171403236253,-10.338524808361441,-42.463680409945255,352.6725421726086,306.6248303400662,112.52857439905713,69.03516037084978,143.04993565271695,411.2607985027387
1.552,-4.193550384813976,8.487928041458314,64.74872560025477,90.66125510084397,15.972716847163468,-33.23652397707251,66.7868946458164,166.64844844618528,126.85398322700303,-46.86192793622993,-102.87155581993025,166.36339658375448,749.596536798462,151.10558278795344,-190.64528742170967,109.95142744886493
1.556,-3.7431189756628687,2.1734495368982643,52.71891668360196,104.28910446321862,61.11915646778296,4.755809696377177,-32.59026188696734,120.64114383037963,178.24110846459692,135.71513078898897,4.108520245724719,-78.9036213701198,294.53372305542104,386.2146462109994,388.28072414545625,39.39134702910984
1.56,-3.1044309029019352,-4.176865373263421,36.7354935357922,98.92321210421237,114.51901301410426,38.288786891276814,-14.972724112381059,6.724854398866256,233.11541600797722,300.8867006931588,171.94982995023983,43.98587676683131,-48.67211127446751,83.16653134455024,212.3371321491309,721.4023663065217
1.564,-1.5172239330190855,-5.648641809104397,20.525550125938217,83.81427159954983,107.75547368408903,108.73173809732143,41.241164777196154,-10.185374825888701,11.926760420490098,125.45563503552151,326.59255046091715,338.45466749458944,140.51349280561047,-12.093539282178227,3.2290088127555805,181.37567189020427
1.568,-0.8694251531275352,-8.109697719434848,4.799481693453888,50.34549541154969,99.12136360384335,152.94924729823953,108.02231239328603,37.37468012851711,-76.59355499173313,32.89158912966414,59.77912220302903,164.9430777897843,229.51394141401454,617.8516421553823,162.47229384206264,123.38791556472287
1.572,0.1527597326269099,-6.114349896250147,-9.366581323542299,26.633322822049756,72.23531229611976,156.44278565851894,165.56951876202533,154.43759048128987,78.34953679190032,41.635069496654125,-103.64502647085973,58.10090815897948,95.33860980939788,474.32856292452874,300.5756886025058,507.001140244165
